time,F8,F4,Fz,F3,F7
0,0.008985769,0.048234265624999995,0.067267891,0.011624727539062499,0.051967496093749996
0.004,0.008984093,0.048232523,0.067265211,0.01162285,0.051965184
0.008,0.008984495,0.048232621,0.067268492,0.011623319,0.051967332
0.012,0.008984193,0.048232621,0.067270234,0.011624593749999999,0.05196991
0.016,0.008982919,0.048233863,0.06727118,0.011624996,0.051971957031249995
0.02,0.008981108,0.048233965,0.067268156,0.011625297851562499,0.051971422
0.024,0.008979131,0.048232691,0.067264172,0.011626136,0.05196743
0.028,0.008982014,0.048233191,0.06726782,0.011626337,0.051969007812499995
0.032,0.008983758,0.048233996093749995,0.06726943,0.011626839843749999,0.051969843749999994
0.036,0.008985366,0.048234199218749996,0.067268695,0.011626906,0.051968468749999996
0.04,0.008985199,0.048233359,0.067265078,0.011625867,0.05196532
0.044,0.008983255,0.048232187499999996,0.067262055,0.01162456,0.051961867
0.048,0.008984696,0.048231246,0.067265547,0.011625599,0.051964246
0.052,0.008984931,0.048231214843749995,0.067266719,0.011627007,0.051965855468749995
0.056,0.008985602,0.048231281,0.067266383,0.011628281249999999,0.051965285
0.06,0.008985869,0.048231082,0.067262156,0.011627979,0.051961797
0.064,0.008982282,0.04822927,0.067259141,0.011627007,0.051959050781249995
0.068,0.008982853,0.048228832031249995,0.067263031,0.011627376,0.051961531
0.072,0.008982416,0.048230277343749996,0.067265945,0.011627645,0.051963809
0.076,0.008983087,0.048230746,0.067265781,0.011626470703124999,0.051964211
0.08,0.008982148,0.048229672,0.067262227,0.011627275390624999,0.051964313
0.084,0.00898017,0.048227726562499997,0.067260617,0.011627175,0.051961297
0.088,0.008980841,0.04822709,0.067263867,0.011626705078124999,0.051959718749999995
0.092,0.008982182,0.048227156,0.067263898,0.011625834,0.051958715
0.096,0.008981913,0.048227156,0.067263234,0.011623923,0.051958043
0.1,0.008979566,0.048226820312499995,0.06726068,0.011622045,0.05195734
0.104,0.008977622,0.048224910156249995,0.06725793,0.011619263,0.051954422
0.108,0.008977286,0.048224375,0.067260547,0.011617921,0.051956836
0.112,0.008978996,0.048223972656249996,0.067260516,0.011617418,0.051957539062499995
0.116,0.008978862,0.048223535,0.067260414,0.011618994,0.051958176
0.12,0.008975442,0.048223938,0.067259172,0.011620033,0.051958445
0.124,0.008973465,0.048223804687499996,0.067257398,0.011618927,0.051957875
0.128,0.008977387,0.048224843749999996,0.067259844,0.011617687,0.051957605
0.132,0.008978226,0.048224977,0.06726075,0.011617083,0.051958781249999995
0.136,0.00897789,0.048224172,0.067261055,0.011616681,0.051960457
0.14,0.008975107,0.048223703124999996,0.067259539,0.011615071289062499,0.051959753906249996
0.144,0.008974336,0.048221289,0.067256359,0.011612825195312499,0.051956871093749996
0.148,0.00897561,0.048219547,0.067258234,0.011612222,0.051958145
0.152,0.008974303,0.048220789,0.067261219,0.011612556640624999,0.051958648
0.156,0.008976984,0.048221523,0.067261188,0.011611047851562499,0.051957941
0.16,0.008976381,0.048220082,0.067257367,0.011609774,0.051956667968749995
0.164,0.008973431,0.048218406,0.067253742,0.011609807617187499,0.051954589843749996
0.168,0.008973465,0.048219179687499995,0.067258102,0.011611751953124999,0.051957441
0.172,0.008975812,0.048219816,0.067258,0.011614233,0.051958715
0.176,0.008976616,0.048218808593749996,0.067257766,0.011615071289062499,0.051958648
0.18,0.008976783,0.048216964843749995,0.067253672,0.011613999,0.051956769531249995
0.184,0.00897447,0.04821425,0.067250023,0.011612993,0.051952777
0.188,0.008975878,0.048213812499999995,0.067252836,0.011612691,0.051952578124999996
0.192,0.008975945,0.048214418,0.067254547,0.01161192,0.051954757812499995
0.196,0.008976113,0.048214383,0.067255422,0.011611115,0.051957203
0.2,0.008976113,0.048214754,0.067253344,0.011610243164062499,0.051955832031249996
0.204,0.008973129,0.048214113,0.067250594,0.011607695,0.051953215
0.208,0.008974303,0.048213746093749996,0.067253344,0.011607058593749999,0.051954121
0.212,0.008976783,0.048214082,0.067253945,0.011605180664062499,0.051953918
0.216,0.008978393,0.048214281,0.067252031,0.011603538,0.051951738
0.22,0.008977487,0.048212406,0.067248516,0.011601292,0.051950164
0.224,0.008974135,0.048210293,0.067246266,0.011600018,0.051948922
0.228,0.008974135,0.048209824218749996,0.06724975,0.011601325,0.051951672
0.232,0.008975744,0.048211164,0.067251898,0.011601761,0.051954992
0.236,0.008978393,0.048211464843749996,0.067250289,0.011601594,0.051952512
0.24,0.008977019,0.048211199,0.067247977,0.011602163085937499,0.051950367
0.244,0.008975107,0.048210461,0.067245563,0.011601057,0.051946945
0.248,0.008975576,0.048210964843749995,0.067250359,0.011601191,0.051949425781249996
0.252,0.00897618,0.04821177,0.067252539,0.011603068,0.051950332
0.256,0.008977286,0.048212808593749996,0.067252367,0.011604275,0.051949964843749995
0.26,0.008975375,0.04821341,0.067250625,0.011604174804687499,0.051948285156249996
0.264,0.008973632,0.048212238,0.067248211,0.011603706,0.051945906
0.268,0.008974738,0.04821227,0.067251492,0.011604778,0.051946879
0.272,0.008976046,0.048212808593749996,0.067252336,0.011606455,0.051946644531249996
0.276,0.008974537,0.048213547,0.067253508,0.011607628,0.051947383
0.28,0.008975309,0.048212406,0.067249984,0.011609171,0.051945703
0.284,0.008974939,0.04821016,0.067245727,0.011608869,0.051941516
0.288,0.008974705,0.048210395,0.067248516,0.011609707,0.051941781
0.292,0.008977286,0.048210796874999996,0.067249953,0.011610880859374999,0.051944027
0.296,0.008975711,0.048212105468749995,0.067251328,0.011612053710937499,0.051945300781249995
0.3,0.008974303,0.048213211,0.06724975,0.011612456,0.051943691
0.304,0.008971721,0.048211734374999995,0.067246672,0.011610914,0.051941781
0.308,0.008973096,0.048211398,0.067248609,0.011608869,0.051943289062499995
0.312,0.008974269,0.048211937499999996,0.067249453,0.011607426757812499,0.051942887
0.316,0.008974369,0.048212137,0.067249414,0.011605784,0.051942855
0.32,0.008974202,0.04821123,0.067246195,0.011604443,0.051942484
0.324,0.008971889,0.048209621093749995,0.06724382,0.01160337,0.051941516
0.328,0.008972022,0.048210395,0.067248039,0.011603772,0.051943625
0.332,0.008973297,0.048211367,0.067248648,0.011604242187499999,0.051944598
0.336,0.008974269,0.048210898,0.067247609,0.011603639,0.051944363281249996
0.34,0.008973934,0.048209992187499995,0.067245531,0.011603538,0.051944195
0.344,0.008973129,0.048207644531249996,0.067241844,0.0116026,0.051941613
0.348,0.008973264,0.048207644531249996,0.067244922,0.011602197,0.051942988
0.352,0.008976649,0.048208316,0.067245094,0.011601660156249999,0.051943961
0.356,0.008976984,0.048209219,0.067243922,0.011601962,0.051943324218749996
0.36,0.008974806,0.048209254,0.067241742,0.011602834,0.051942016
0.364,0.008973129,0.048207039,0.06723943,0.011602264,0.05193977
0.368,0.008973967,0.048207176,0.067242008,0.011604376,0.051940777343749994
0.372,0.00897732,0.048207644531249996,0.067242977,0.011606689,0.051937992
0.376,0.008975677,0.048207812499999995,0.067243453,0.011607494140624999,0.051938934
0.38,0.00897447,0.048207309,0.067239758,0.011607461,0.051938394531249994
0.384,0.008973431,0.048205832,0.067236406,0.011605113,0.051934742
0.388,0.008974403,0.048205465,0.067238789,0.011604812,0.051936785
0.392,0.008975812,0.048205766,0.067240266,0.011604209,0.051937895
0.396,0.008976817,0.048207207,0.06724043,0.011603739257812499,0.051938394531249994
0.4,0.008978795,0.048205800781249995,0.067236141,0.011602431640624999,0.051935914
0.404,0.008974939,0.048202917968749995,0.067233227,0.011601325,0.051933066
0.408,0.008975912,0.048202917968749995,0.067237109,0.011601358398437499,0.051934371
0.412,0.008976549,0.048203621093749996,0.067240063,0.011601157226562499,0.051934773
0.416,0.008976247,0.048203585937499994,0.067240938,0.011601996093749999,0.051934641
0.42,0.008975644,0.048201609374999996,0.067237914,0.011602499023437499,0.051934406249999995
0.424,0.008972626,0.048198624999999995,0.06723607,0.011603404,0.051933265624999995
0.428,0.008973934,0.048197753906249995,0.067239961,0.011605349,0.051933301
0.432,0.008975442,0.048198828124999996,0.067240234,0.011606219726562499,0.051933902
0.436,0.008974504,0.048199832,0.067240133,0.011605684,0.051934039
0.44,0.008972794,0.048200102,0.067237648,0.011605583,0.051932762
0.444,0.008970279,0.048198324,0.067234563,0.011605349,0.051931624999999995
0.448,0.008972022,0.048198191,0.067236641,0.011607326,0.051929945312499996
0.452,0.008972861,0.048198324,0.067236875,0.011608433,0.051929813
0.456,0.008973632,0.048198558593749996,0.067236977,0.011609171,0.051929511718749995
0.46,0.008972794,0.048198894531249994,0.067235406,0.011609573242187499,0.051928504
0.464,0.008970246,0.048197484374999995,0.067233461,0.011609908,0.051926426
0.468,0.008970146,0.048196746,0.067237719,0.011611550781249999,0.051928672
0.472,0.008971185,0.048197585937499995,0.067239758,0.011611819335937499,0.051929543
0.476,0.008970179,0.048199195,0.067240734,0.011612053710937499,0.051930617
0.48,0.008970347,0.048198624999999995,0.067236977,0.011612389648437499,0.051928640624999994
0.484,0.008967832,0.048197082,0.067232922,0.011612591,0.051926594
0.488,0.008967966,0.048197585937499995,0.06723607,0.011613261,0.051929043
0.492,0.008970815,0.048197316406249996,0.067236242,0.011613999,0.051929645
0.496,0.008972324,0.048196145,0.067235234,0.011614267,0.051928875
0.5,0.008971821,0.04819507,0.067234063,0.011612993,0.051926527
0.504,0.008970246,0.048191953,0.067229773,0.011611417,0.051922234
0.508,0.008971151,0.048190848,0.067231281,0.011611148,0.05192257
0.512,0.008970614,0.048190949,0.067233359,0.011611886718749999,0.05192398
0.516,0.00897219,0.048190277,0.067232352,0.011612389648437499,0.051924816
0.52,0.008971353,0.048188367,0.067229031,0.011612758,0.051922805
0.524,0.008966591,0.048186523437499997,0.067228023,0.011612926,0.051922738
0.528,0.008968603,0.048187257812499995,0.067231047,0.011613529,0.051924582
0.532,0.008972022,0.048187628906249995,0.067230977,0.011613697265624999,0.051923242187499996
0.536,0.008971755,0.048186589843749995,0.067230578,0.011613194,0.051922234
0.54,0.008968904,0.048186453,0.067229336,0.011612792,0.051922137
0.544,0.008966893,0.048185918,0.067226852,0.011612088,0.051920695
0.548,0.008969844,0.048185383,0.067228594,0.011612423,0.051920293
0.552,0.008969776,0.048185246093749995,0.067230172,0.011613597,0.051920457
0.556,0.00897048,0.048184844,0.067229266,0.011614166,0.051919117187499995
0.56,0.008970548,0.048184176,0.067226789,0.011613831054687499,0.051918379
0.564,0.008968502,0.048181996,0.06722293,0.011611383789062499,0.051915227
0.568,0.008968033,0.048182801,0.067226086,0.011609573242187499,0.051916269531249996
0.572,0.008969341,0.04818357,0.067227828,0.011609707,0.051919285156249995
0.576,0.008971051,0.048183539062499996,0.06722793,0.011609539,0.051919988281249996
0.58,0.008969844,0.048183269531249996,0.067225883,0.011608567382812499,0.051919386718749995
0.584,0.008968301,0.048182734,0.067222195,0.011606958,0.051915227
0.588,0.008970078,0.048182566406249995,0.067224336,0.011607159,0.051914758
0.592,0.008970413,0.048181828,0.067227219,0.011607024,0.051917742
0.596,0.008972593,0.048181961,0.067227086,0.011606891,0.051917641
0.6,0.008972761,0.04818223,0.067224844,0.011606488281249999,0.05191573
0.604,0.008971218,0.048181059,0.067221492,0.011605449,0.051912848
0.608,0.008972057,0.048180086,0.067225141,0.011606187,0.051915664
0.612,0.00897219,0.048181391,0.06722843,0.011607394,0.051917543
0.616,0.008974135,0.048182332,0.067226922,0.011606388,0.051916703
0.62,0.008972425,0.048181125,0.067224977,0.011606119,0.051916973
0.624,0.008970682,0.048179449218749996,0.067221961,0.011606455,0.051913886718749996
0.628,0.008971285,0.048178676,0.067224672,0.011607763,0.051913688
0.632,0.00897085,0.048179715,0.067226117,0.011609137,0.051913754
0.636,0.008972224,0.048179715,0.067225281,0.011609002929687499,0.051912781
0.64,0.008971486,0.048178609,0.067222492,0.011608098,0.051912042968749995
0.644,0.008968301,0.048177035,0.06722075,0.011608165,0.051911406
0.648,0.008968335,0.048177469,0.067224336,0.011609707,0.051913453124999995
0.652,0.008968301,0.048179113,0.067227219,0.011612088,0.051916335937499995
0.656,0.008968972,0.048180117187499996,0.067227594,0.011613932,0.051917308593749996
0.66,0.00896924,0.048179984,0.067224477,0.011615104,0.051914895
0.664,0.008968268,0.048178105468749996,0.067220883,0.011614502,0.051912078
0.668,0.008969542,0.048177637,0.067223,0.011614568359374999,0.05191325
0.672,0.008971252,0.048178074,0.067224102,0.0116141,0.051913051
0.676,0.008970749,0.04817834,0.067224477,0.011612389648437499,0.051912914062499996
0.68,0.008968401,0.048177300781249995,0.067222195,0.011611585,0.05191191
0.684,0.008965217,0.048175425781249996,0.067219445,0.011611751953124999,0.051910434
0.688,0.008966859,0.048175289062499994,0.067221789,0.011612456,0.05191268
0.692,0.008967966,0.048176027,0.067222625,0.011613496,0.051914257812499996
0.696,0.008968436,0.048176664,0.06722343,0.011613562499999999,0.051911941406249995
0.7,0.008966155,0.048176598,0.067221492,0.011613126953124999,0.051911171874999995
0.704,0.008963674,0.048174922,0.067217094,0.01161192,0.05190973
0.708,0.008965317,0.048173914062499996,0.067218469,0.011611047851562499,0.051909395
0.712,0.008967094,0.048174688,0.067219078,0.01161192,0.051908086
0.716,0.008968268,0.048173746,0.067217195,0.011612523,0.051907148437499995
0.72,0.008965786,0.048172676,0.067215688,0.011613059570312499,0.051907215
0.724,0.008964043,0.048171805,0.06721368,0.01161316,0.051904902343749997
0.728,0.008964378,0.048172039,0.067216523,0.011612825195312499,0.051905371
0.732,0.008964312,0.048172238281249995,0.067219109,0.011612691,0.051907917968749995
0.736,0.008964747,0.048172441406249995,0.067219109,0.011612053710937499,0.051909328
0.74,0.008964646,0.048172374999999996,0.067216961,0.011611082031249999,0.051908758
0.744,0.008963071,0.048170832,0.067213609,0.011609473,0.05190527
0.748,0.008963071,0.048169727,0.067215555,0.011608366,0.051905406
0.752,0.008963741,0.048169324,0.067217133,0.011608366,0.051906309
0.756,0.008963138,0.048169355,0.067218102,0.011608467,0.051906878906249995
0.76,0.008963507,0.048168046874999995,0.067215523,0.01160803,0.051905406
0.764,0.008963372,0.048164527,0.067211164,0.011606689,0.05190041
0.768,0.008964244,0.048162852,0.067212836,0.011605684,0.05189984
0.772,0.008964211,0.048161343749999995,0.067215016,0.011606388,0.051901551
0.776,0.008964546,0.0481595,0.06721418,0.011606891,0.051901617
0.78,0.008962031,0.048157753906249996,0.067213242,0.011606488281249999,0.051902051
0.784,0.008960892,0.048154703,0.067209453,0.011605516,0.05189652
0.788,0.008962166,0.048152727,0.067211398,0.011605885,0.051895882812499995
0.792,0.008962166,0.048151652,0.067214016,0.011606354,0.051897762
0.796,0.008962333,0.048149707031249996,0.067213781,0.011606857,0.051899707
0.8,0.008962367,0.048146422,0.067211836,0.011608734374999999,0.051900007812499996
0.804,0.008962031,0.048142602,0.067208883,0.011608701,0.05189709
0.808,0.008960221,0.048139719,0.067212641,0.011609070312499999,0.051899672
0.812,0.008961729,0.048138542968749996,0.067215422,0.011609573242187499,0.051902355468749994
0.816,0.008962132,0.048137473,0.067215688,0.011609473,0.051902789062499996
0.82,0.008961495,0.048135594,0.067214313,0.011609070312499999,0.051902117
0.824,0.008960054,0.048131672,0.067211602,0.011608298828124999,0.051900777343749996
0.828,0.00895945,0.048129594,0.067213375,0.011608467,0.051902019531249996
0.832,0.008957841,0.048127313,0.067217602,0.011609137,0.051905875
0.836,0.008957036,0.04812691,0.067219578,0.011608835,0.051908691
0.84,0.008956332,0.048125336,0.067217867,0.01160897,0.051909293
0.844,0.008952979,0.048121714843749996,0.067215188,0.011608533,0.051908019531249995
0.848,0.008953884,0.048119633,0.067217766,0.011608801757812499,0.051908926
0.852,0.008954454,0.048119133,0.067220453,0.011609707,0.051909629
0.856,0.008954856,0.048117121,0.067220453,0.011610377929687499,0.051910434
0.86,0.008952845,0.048113867,0.067219648,0.011610847,0.051909964843749996
0.864,0.008948151,0.048110144531249996,0.067218273,0.01161135,0.051908758
0.868,0.008948922,0.048107531249999995,0.067222125,0.011612591,0.051911773437499996
0.872,0.008952477,0.048106625,0.06722457,0.011613328124999999,0.051911305
0.876,0.008952778,0.048105621093749995,0.067223195,0.011613898437499999,0.051909395
0.88,0.008952342,0.048102973,0.067220719,0.01161373,0.051906914
0.884,0.008949794,0.048099046874999996,0.067217297,0.011611283,0.051903058593749996
0.888,0.008947916,0.048097473,0.067220383,0.011609606,0.051904531
0.892,0.008949459,0.048096398,0.067221289,0.011609874999999999,0.051905171874999996
0.896,0.008951403,0.048094289,0.067219711,0.01160897,0.051904265624999994
0.9,0.008948554,0.04809107,0.067219039,0.011607863,0.051906309
0.904,0.008947279,0.048086976562499995,0.067215523,0.011606086,0.051904129
0.908,0.008948989,0.048083523,0.067216094,0.011604443,0.051902355468749994
0.912,0.008949459,0.048081246093749995,0.067218469,0.011602666015624999,0.051902519531249997
0.916,0.008947581,0.048080543,0.067219039,0.011601694,0.051900141
0.92,0.008948252,0.048078629,0.067216125,0.011601928710937499,0.051897762
0.924,0.008946307,0.048074605,0.067212602,0.011601393,0.051894808593749994
0.928,0.008946273,0.048071188,0.067214586,0.011601996093749999,0.051894508
0.932,0.008947916,0.048068973,0.067216094,0.011603639,0.051894309
0.936,0.008948989,0.048066828124999995,0.067214852,0.011604275,0.051892395
0.94,0.008947146,0.048062804687499995,0.067211836,0.011604108,0.051891757812499995
0.944,0.00894396,0.048057543,0.067209758,0.01160327,0.051892832031249995
0.948,0.008944765,0.048054656,0.067211664,0.011603739257812499,0.051893168
0.952,0.008947614,0.048052781249999996,0.067212336,0.011604174804687499,0.051891523437499996
0.956,0.008947146,0.048050398437499996,0.067211398,0.011604275,0.05188998
0.96,0.008947749,0.048047113,0.067208383,0.011604343,0.051886863
0.964,0.00894453,0.048042754,0.067205398,0.01160384,0.051884418
0.968,0.00894282,0.048039906,0.06720982,0.011605684,0.051885859374999996
0.972,0.008943859,0.048037961,0.067213109,0.011607394,0.051888105
0.976,0.008943188,0.048036719,0.06721468,0.011608567382812499,0.051890484
0.98,0.008942484,0.048035582031249996,0.067213172,0.011607997070312499,0.051890886718749994
0.984,0.008941312,0.048032328124999996,0.067209148,0.011606354,0.051888875
0.988,0.008942351,0.048029043,0.067209992,0.011606253906249999,0.051888976562499994
0.992,0.008942921,0.048026762,0.067211734,0.01160679,0.051888808593749995
0.996,0.008941848,0.048025656,0.067212734,0.011607628,0.051889781249999996
1,0.008942083,0.048023140624999995,0.06721193,0.011607461,0.051887871093749996
1.004,0.008939836,0.048018949218749996,0.067210086,0.011606589,0.051884449218749996
1.008,0.008941077,0.048016335937499995,0.067211836,0.011606455,0.051883746093749995
1.012,0.008942585,0.048014257812499996,0.067213109,0.011605180664062499,0.051883476562499996
1.016,0.00894282,0.048012144531249995,0.067212773,0.011603639,0.05188398
1.02,0.008943625,0.048009461,0.067210156,0.011601962,0.051882503906249995
1.024,0.008941681,0.048005539,0.067205898,0.011600185546874999,0.051879117
1.028,0.008941144,0.048002824,0.067207438,0.011599849609374999,0.051878918
1.032,0.008940172,0.048000578,0.067210055,0.011601526,0.051881398
1.036,0.008941982,0.047998602,0.067209219,0.011602867,0.051879656249999996
1.04,0.008940339,0.047995785,0.067207742,0.011603806640624999,0.051877980468749994
1.044,0.00893883,0.047991792968749995,0.067203516,0.011603873,0.051873586
1.048,0.008937054,0.047988711,0.067205227,0.011604242187499999,0.051872445312499994
1.052,0.008938897,0.047987266,0.067206703,0.011604443,0.051872715
1.056,0.008939937,0.047984688,0.067205633,0.011605113,0.051872012
1.06,0.008938596,0.047982004,0.067204125,0.011605113,0.051871238281249996
1.064,0.008937221,0.04797798,0.067200195,0.011603873,0.051868859
1.068,0.008938596,0.047975363281249996,0.067200602,0.011604041,0.051867855468749995
1.072,0.008938495,0.047973188,0.067202313,0.011605180664062499,0.051868758
1.076,0.008937389,0.047971141,0.06720432,0.011606521,0.051873184
1.08,0.008939735,0.047968527,0.067203047,0.011607494140624999,0.051871477
1.084,0.008936953,0.047965875,0.06719943,0.011607125,0.051867051
1.088,0.008936718,0.047963531,0.067200531,0.011608533,0.051867184
1.092,0.008936584,0.047961988,0.067202945,0.011609036,0.051868660156249996
1.096,0.008937758,0.047960211,0.06720268,0.011609774,0.05187
1.1,0.008938025,0.047958164062499996,0.067200703,0.01161078,0.051870168
1.104,0.008936651,0.047954343749999996,0.067195805,0.011610746093749999,0.051866816406249995
1.108,0.00893769,0.047950621,0.067196781,0.011611148,0.051867785
1.112,0.008938897,0.047948508,0.067198352,0.011611886718749999,0.051868422
1.116,0.008935646,0.047946531,0.067200531,0.011613094,0.051870468749999996
1.12,0.008934572,0.04794509,0.067199594,0.011614736,0.051871375
1.124,0.008934907,0.047942207031249996,0.067195703,0.011614065429687499,0.051868926
1.128,0.008936081,0.047938887,0.067195977,0.011612691,0.051866277343749996
1.132,0.00893635,0.047936371,0.067197586,0.011613562499999999,0.051865472656249995
1.136,0.00893702,0.047934058593749995,0.067198187,0.011613932,0.051864836
1.14,0.008936383,0.047932215,0.067197547,0.011612725,0.051864031
1.144,0.008933801,0.04793027,0.067193328,0.011611618,0.051860746
1.148,0.008933365,0.047928594,0.067194766,0.011612154,0.051860848
1.152,0.008932795,0.047928492,0.067198219,0.011613597,0.051863797
1.156,0.008935377,0.047927453,0.06719782,0.011614233,0.051864734
1.16,0.008936986,0.047925375,0.067195039,0.011615038,0.051860379
1.164,0.0089337,0.047922359,0.067191617,0.01161373,0.051858128906249995
1.168,0.008932259,0.047918434,0.067194328,0.011612121093749999,0.051859472656249996
1.172,0.008932694,0.04791525,0.067196609,0.011611786,0.051861484374999996
1.176,0.00893303,0.047913172,0.067196242,0.011611651,0.051862055
1.18,0.008932125,0.047912266,0.067195305,0.011612188,0.051862152343749995
1.184,0.008930616,0.047910992,0.067191617,0.011611686,0.051859809
1.188,0.008929543,0.047908644531249996,0.067192891,0.011611819335937499,0.051860043
1.192,0.008929678,0.047908074,0.067196141,0.011611585,0.051862391
1.196,0.00893132,0.047906297,0.067195977,0.011609941,0.05186316
1.2,0.008930348,0.047903785156249996,0.067193625,0.011608366,0.05186316
1.204,0.008927297,0.047900664,0.067190539,0.011606891,0.051860109
1.208,0.008925688,0.047898922,0.067193023,0.011607192,0.051860945
1.212,0.008926962,0.047898855,0.067195977,0.011608567382812499,0.051863394531249996
1.216,0.008928537,0.047898387,0.067196078,0.011608332,0.05186343
1.22,0.008929543,0.047896238281249996,0.067193859,0.011607125,0.05186343
1.224,0.008927833,0.047892585937499996,0.067190039,0.011604778,0.051859906
1.228,0.00892904,0.047890371093749995,0.067190039,0.011603671874999999,0.051858433593749996
1.232,0.008928537,0.047889398,0.067192086,0.011603873,0.051858699
1.236,0.008928169,0.047887320312499995,0.067192352,0.011605214,0.051859406
1.24,0.008927833,0.047885343749999996,0.06719125,0.011605784,0.051859406
1.244,0.008925117,0.047883566406249994,0.067189539,0.01160508,0.051856355
1.248,0.008924246,0.047881824,0.067192289,0.011605549804687499,0.051857492
1.252,0.00892314,0.047881621,0.067195102,0.011607125,0.051859941
1.256,0.00892448,0.047881218749999996,0.067194328,0.011605885,0.051860914
1.26,0.008926258,0.047880281,0.067191648,0.01160384,0.051860211
1.264,0.008923407,0.047877699,0.067187227,0.011602163085937499,0.05185793
1.268,0.008923072,0.047875723,0.067188695,0.011602197,0.051858230468749995
1.272,0.008924782,0.047875219,0.067189906,0.011602230468749999,0.051859539062499994
1.276,0.008924514,0.047874347656249996,0.067190172,0.011601694,0.051861016
1.28,0.008924179,0.047873273437499995,0.067189266,0.011602431640624999,0.051860781249999995
1.284,0.008922066,0.047871598,0.067186188,0.011602063,0.051856688
1.288,0.008921999,0.047870258,0.067186852,0.011601459,0.051854945
1.292,0.008922368,0.047870523,0.067188531,0.011601258,0.051853539062499995
1.296,0.008919485,0.047871027,0.067190813,0.011600855468749999,0.051855011718749996
1.3,0.008921229,0.047870289062499995,0.067189172,0.011600487304687499,0.051855347656249995
1.304,0.008919451,0.047867339843749995,0.067184203,0.01159995,0.051853871
1.308,0.008919351,0.047865832,0.067184508,0.011600521,0.051852332
1.312,0.00891982,0.047866332,0.067188266,0.011601928710937499,0.051852499999999996
1.316,0.008920994,0.047866968749999995,0.06718957,0.011601996093749999,0.051852499999999996
1.32,0.008920658,0.047865797,0.067186719,0.011601258,0.051852867
1.324,0.008916937,0.047862781,0.067182461,0.011601594,0.05185082
1.328,0.008915428,0.047861371,0.067185109,0.011602968,0.051849613
1.332,0.008917037,0.047862141,0.067186852,0.011603471,0.051848238
1.336,0.008917675,0.047862211,0.067185578,0.011602431640624999,0.051845324218749995
1.34,0.008915428,0.047863249999999996,0.067184539,0.011600956,0.051844051
1.344,0.008914355,0.047861977,0.067177805,0.011597637,0.051838887
1.348,0.008911841,0.0478605,0.067177266,0.011595793,0.051837980468749996
1.352,0.008911203,0.047860968749999996,0.067179648,0.011595559,0.051839758
1.356,0.008910566,0.047860801,0.067179648,0.011594754,0.051840761718749996
1.36,0.008908991,0.047859762,0.067177031,0.011594485,0.051840058593749995
1.364,0.008904163,0.047858957031249996,0.067174047,0.011594754,0.051837043
1.368,0.00890262,0.047859965,0.067175961,0.011595625,0.051836977
1.372,0.008903123,0.047860602,0.06717857,0.011596766,0.051838348
1.376,0.008903022,0.047860602,0.067178141,0.011595524414062499,0.051838851562499996
1.38,0.008903324,0.047859762,0.067175219,0.011593178,0.051838348
1.384,0.008900039,0.047857582,0.067170797,0.011591301,0.051836070312499996
1.388,0.008900105,0.047856813,0.067172977,0.011590965,0.051834563
1.392,0.00890195,0.047857414,0.067174484,0.011591769531249999,0.051834492
1.396,0.008899771,0.047858253906249995,0.067174148,0.011592373,0.051835566
1.4,0.008899569,0.047859059,0.067171867,0.011592943,0.051835265624999995
1.404,0.008897558,0.047857516,0.06716707,0.011592105468749999,0.051831914
1.408,0.008895345,0.047857617,0.06716982,0.011591703,0.051832113281249995
1.412,0.008898731,0.047858855468749996,0.067170664,0.011591435,0.051831777343749996
1.416,0.008899033,0.047859059,0.067170359,0.011590798,0.051831175781249995
1.42,0.00890091,0.047858117,0.067168211,0.011589523437499999,0.051829933593749995
1.424,0.008898161,0.04785641,0.067163453,0.011587344,0.051826516
1.428,0.008896351,0.047856074218749996,0.067164656,0.011586438476562499,0.051827418
1.432,0.008898262,0.047856175781249996,0.067165461,0.011586774414062499,0.051827753906249996
1.436,0.008898497,0.047856140624999995,0.067164828,0.011587076,0.051828527
1.44,0.008897793,0.047856609,0.067163617,0.011586841,0.051828559
1.444,0.008895915,0.047854734,0.06715943,0.011585601,0.051827016
1.448,0.008896652,0.047852488,0.06715943,0.011585098,0.051826648
1.452,0.008897155,0.04785366,0.067162047,0.011585332,0.051829129
1.456,0.008898765,0.047854566,0.067162383,0.011585701171874999,0.051829363
1.46,0.008900072,0.047854766,0.067159867,0.011584662,0.051825406
1.464,0.008897155,0.047854332031249995,0.067156578,0.011582985,0.051823395
1.468,0.008896854,0.047853727,0.06715832,0.011582482,0.051822757812499995
1.472,0.008899503,0.047853089843749995,0.067159328,0.011582381835937499,0.051824167968749994
1.476,0.008899167,0.047852820312499995,0.067159531,0.011582416,0.051824906
1.48,0.008898362,0.047853426,0.067157852,0.011582751,0.051823598
1.484,0.008895178,0.047852753906249997,0.067154836,0.011582717773437499,0.051822324
1.488,0.008895646,0.047852988281249995,0.067156609,0.011582349,0.051822121
1.492,0.008897859,0.047854195,0.067157586,0.011582248,0.051821550781249996
1.496,0.00889967,0.047854398,0.067155672,0.011582047,0.05181934
1.5,0.008898799,0.047854832031249996,0.067154906,0.011581208984374999,0.051819406
1.504,0.008896351,0.047854664062499996,0.06715175,0.011579465,0.051817395
1.508,0.008895982,0.047854633,0.067153063,0.011579298,0.051816957
1.512,0.008897424,0.047855871093749995,0.067155438,0.011580638671874999,0.051816992
1.516,0.008898598,0.047855637,0.067154602,0.011580772,0.05181632
1.52,0.008896687,0.047855371093749995,0.067154102,0.011580772,0.051817461
1.524,0.008892495,0.047854933593749996,0.067151883,0.01158141,0.051817628906249996
1.528,0.008893367,0.04785527,0.067152992,0.011581913,0.051817832
1.532,0.008895915,0.04785527,0.067154297,0.01158255,0.051817059
1.536,0.0088934,0.047855605,0.06715507,0.01158332,0.051819976562499995
1.54,0.008893937,0.047855469,0.067153633,0.011584829,0.051819976562499995
1.544,0.008892495,0.047854164062499996,0.067148969,0.0115855,0.051816824218749995
1.548,0.008893232,0.047853559,0.067149805,0.011585064,0.051816824218749995
1.552,0.008895379,0.047853324,0.067151984,0.011584963867187499,0.051818667968749996
1.556,0.008897692,0.04785366,0.06715118,0.011584394,0.051817262
1.56,0.008897155,0.047854230468749995,0.067150211,0.011585064,0.051817059
1.564,0.008895345,0.047853055,0.067147195,0.011586171,0.051815515624999996
1.568,0.008894675,0.047852418,0.067149203,0.011587209960937499,0.051815215
1.572,0.008895043,0.047853124999999996,0.067152023,0.011589154,0.05181659
1.576,0.008896652,0.047853258,0.06715182,0.011590026367187499,0.051816152
1.58,0.008896687,0.047853223,0.06714957,0.01159187,0.051814242
1.584,0.008894272,0.047852152343749996,0.067146625,0.011592272460937499,0.051811125
1.588,0.008894071,0.047851379,0.067148164,0.011591602539062499,0.051810688
1.592,0.008893501,0.047852218749999995,0.067151414,0.011591836914062499,0.05181223
1.596,0.008894607,0.047854230468749995,0.067153063,0.011591367,0.051810992187499995
1.6,0.008895681,0.04785527,0.06715175,0.011590965,0.051810688
1.604,0.008892462,0.047853124999999996,0.067146219,0.011590932,0.051811964843749996
1.608,0.008890718,0.047851648,0.067148563,0.011591938,0.051814847656249996
1.612,0.008892193,0.047853055,0.067152391,0.011593882,0.051814476562499996
1.616,0.008893971,0.047853996,0.067151883,0.011593882,0.05181498
1.62,0.008892428,0.047854734,0.067151648,0.011594284179687499,0.051816992
1.624,0.00888864,0.047853223,0.067148633,0.011595156249999999,0.051818066406249995
1.628,0.008888003,0.04785225,0.067149672,0.011596597656249999,0.051820746093749995
1.632,0.008888472,0.047852921874999996,0.067153125,0.011597771,0.051824269531249995
1.636,0.008887299,0.047853191406249995,0.067153391,0.011599079,0.051826582
1.64,0.008885655,0.047853894531249996,0.067153359,0.011600185546874999,0.051830539
1.644,0.008884784,0.047853391,0.067150344,0.011600319,0.051829262
1.648,0.008884348,0.04785366,0.067152523,0.011600319,0.05182866
1.652,0.008885488,0.047854832031249996,0.06715507,0.011600453,0.051830804687499996
1.656,0.008885454,0.047856175781249996,0.067155875,0.011601393,0.051832214843749995
1.66,0.008885488,0.047857011718749995,0.067155438,0.011602298,0.051830234
1.664,0.008883577,0.047855438,0.067151688,0.011601258,0.051825645
1.668,0.008883477,0.047853426,0.067151016,0.011600990234374999,0.051825406
1.672,0.008883241,0.047852891,0.067154031,0.011602364,0.051827753906249996
1.676,0.008882806,0.047852652343749996,0.067154164,0.011603538,0.051828391
1.68,0.008883007,0.047853292968749996,0.067153531,0.0116026,0.051828996093749996
1.684,0.008880962,0.047853023437499996,0.067151219,0.011600319,0.051829195
1.688,0.008880761,0.047853324,0.067153023,0.011600018,0.051827285
1.692,0.008882571,0.047854094,0.067155039,0.011600554,0.051827652343749996
1.696,0.008882906,0.047853426,0.067153727,0.011601594,0.051826313
1.7,0.008882939,0.047852652343749996,0.067151148,0.011601325,0.051824937499999994
1.704,0.008881666,0.047851414,0.067146656,0.011599179687499999,0.051822055
1.708,0.008882738,0.047850273,0.067147125,0.011599079,0.051820379
1.712,0.008882403,0.047850976562499994,0.067150578,0.011600319,0.051822559
1.716,0.008883342,0.047852117,0.067150609,0.011600922851562499,0.05182343
1.72,0.008883577,0.047851043,0.067149172,0.011600654296874999,0.051823965
1.724,0.008881229,0.047850406,0.067147359,0.011600588,0.051821117187499995
1.728,0.008882169,0.047849672,0.067148703,0.011600252,0.051820715
1.732,0.008882939,0.04785034,0.067150742,0.01160089,0.051821718749999995
1.736,0.00888475,0.047850879,0.067150109,0.011600688,0.051819874999999994
1.74,0.008884314,0.047850207031249994,0.067147664,0.011599984374999999,0.051818499999999997
1.744,0.008882001,0.047848128906249995,0.067144711,0.011598408203124999,0.051815953124999994
1.748,0.008880693,0.047846922,0.067146719,0.011596162109374999,0.051816254
1.752,0.008880593,0.047847824218749994,0.067151312,0.011595591796874999,0.051819844
1.756,0.0088819,0.047848395,0.067151047,0.01159472,0.051821953
1.76,0.008881397,0.047848531,0.067149406,0.011593413085937499,0.051822391
1.764,0.008879419,0.047847156249999995,0.067145883,0.011590529296874999,0.051817293
1.768,0.008876871,0.047846184,0.067146555,0.011589590820312499,0.051817496
1.772,0.008877475,0.047847257812499995,0.067149875,0.01158949,0.051820313
1.776,0.008877039,0.047849269531249995,0.067150414,0.011589691,0.051820847656249995
1.78,0.008875563,0.047849504,0.067148898,0.011590932,0.051821050781249996
1.784,0.008875027,0.047847355,0.067143906,0.01158939,0.051816891
1.788,0.008873519,0.047846015624999995,0.067144211,0.011586707031249999,0.051814476562499996
1.792,0.008873451,0.04784598,0.067146453,0.011585768554687499,0.051815617187499996
1.796,0.008872546,0.047846453,0.067146219,0.011585902,0.051817832
1.8,0.008873385,0.047846551,0.067145547,0.011585299,0.051819976562499995
1.804,0.008873385,0.047844676,0.067141758,0.011584426757812499,0.051817527343749996
1.808,0.008869193,0.04784377,0.067144508,0.01158436,0.051818133
1.812,0.008869227,0.047845078124999996,0.067147859,0.011585130859374999,0.051820949218749995
1.816,0.008869193,0.047845277,0.067148398,0.011586774414062499,0.051820613
1.82,0.008869864,0.047844574,0.067147156,0.011587479,0.051820578124999996
1.824,0.008867584,0.047842863281249995,0.067143,0.011586473,0.051819609
1.828,0.008866512,0.047841691,0.067144844,0.011587579101562499,0.051820816
1.832,0.008869025,0.047842598,0.067146391,0.011588283203124999,0.051821148
1.836,0.008869261,0.047843164,0.067144273,0.011587746,0.051818871093749996
1.84,0.008867685,0.047843098,0.067143234,0.011587109,0.051817496
1.844,0.008866512,0.047841722656249995,0.067139883,0.011584394,0.051815683593749995
1.848,0.008866009,0.047840418,0.067141258,0.011581778,0.051811461
1.852,0.008866276,0.047841422,0.067143734,0.011581577,0.051811563
1.856,0.008866478,0.047842093749999995,0.067142836,0.011581711914062499,0.051812668
1.86,0.008867081,0.047842496,0.067142367,0.011581878906249999,0.051812937499999996
1.864,0.008864902,0.047842195312499995,0.067138344,0.011582315,0.051810051
1.868,0.008862891,0.047842395,0.067138406,0.011582818,0.051808578
1.872,0.008863293,0.047843234374999995,0.067141125,0.011584494,0.051809516
1.876,0.008862555,0.047842664,0.067141422,0.011585533,0.051810019531249994
1.88,0.008863058,0.047842863281249995,0.067140617,0.011586539,0.051810656249999996
1.884,0.008861918,0.047841925781249996,0.067135156,0.011585734,0.051806129
1.888,0.008859537,0.047840316,0.067135289,0.011584997,0.051803984
1.892,0.008860208,0.047840215,0.067138508,0.011586271484374999,0.051805457031249995
1.896,0.008862052,0.047840886718749996,0.067138914,0.011587411,0.051804555
1.9,0.008862388,0.04784102,0.067138375,0.011587076,0.051804219
1.904,0.008859672,0.047839477,0.067134453,0.011586372,0.051804219
1.908,0.008857526,0.047838171874999995,0.067136297,0.011587344,0.051805293
1.912,0.008861415,0.047838707,0.067138508,0.011588484,0.051807402343749996
1.916,0.008861583,0.047839344,0.067137867,0.011587143,0.05180727
1.92,0.008860879,0.047839914062499996,0.067136297,0.011585467,0.05180623
1.924,0.00885937,0.047839210937499994,0.067132375,0.011583656,0.051802609374999996
1.928,0.008858129,0.047839074,0.067133414,0.011582214843749999,0.051800699218749996
1.932,0.008859504,0.047839242,0.067135258,0.011582516601562499,0.051800765624999995
1.936,0.008862052,0.047839781,0.067134484,0.011581745,0.051799426
1.94,0.008861649,0.047840418,0.067134484,0.011580772,0.051798184
1.944,0.008858196,0.047839141,0.067132039,0.011580002,0.051797175781249996
1.948,0.008859336,0.047837668,0.067131766,0.011579029,0.05179577
1.952,0.008860208,0.047836563,0.067133984,0.011579029,0.051795265624999996
1.956,0.008860074,0.047836492187499996,0.067134047,0.011578056640624999,0.051795836
1.96,0.008861482,0.047837465,0.067131969,0.011577319,0.051794629
1.964,0.008859873,0.047835285,0.067127141,0.011576682617187499,0.051791578124999994
1.968,0.008856855,0.047833273,0.067128516,0.011576313476562499,0.051792918
1.972,0.008855279,0.047835722656249996,0.067133375,0.011578896,0.051795402
1.976,0.008856018,0.0478375,0.067133813,0.011580538,0.051794262
1.98,0.008856486,0.047838406,0.067131867,0.011580940429687499,0.051794124999999996
1.984,0.00885719,0.047837332,0.067126172,0.0115796,0.051789938
1.988,0.008855749,0.047837465,0.067125898,0.01157923,0.051787453
1.992,0.00885585,0.047838371,0.067129688,0.011579632812499999,0.051789633
1.996,0.008858531,0.047838605468749996,0.067129758,0.011579062499999999,0.051789535
2,0.008857861,0.047839141,0.067129156,0.01157866,0.051789098
2.004,0.008856252,0.047838406,0.067125898,0.01157799,0.051787121
2.008,0.00885585,0.047837668,0.067125836,0.011576716,0.051785374999999995
2.012,0.008855112,0.047838137,0.067128516,0.011577319,0.051786582
2.016,0.008854877,0.047838137,0.067129289,0.011577688476562499,0.051787688
2.02,0.008856185,0.047839242,0.067129086,0.011577956,0.051788562499999996
2.024,0.008854911,0.047838336,0.067124828,0.011577185546874999,0.051787121
2.028,0.008852865,0.047836797,0.06712443,0.011576917,0.051786582
2.032,0.008854273,0.047837867,0.067126672,0.011576347,0.05178702
2.036,0.008854811,0.047839210937499994,0.067126508,0.011575844,0.051786012
2.04,0.008855347,0.047839980468749994,0.067124961,0.01157628,0.051785374999999995
2.044,0.008850619,0.047840148,0.067123086,0.011576347,0.051784637
2.048,0.008850317,0.047839945,0.067123148,0.011576347,0.051784941
2.052,0.008852664,0.047840348,0.067124859,0.011576547851562499,0.051784371093749997
2.056,0.008853234,0.047841086,0.06712443,0.011575944,0.051782996
2.06,0.008853134,0.047839914062499996,0.067124195,0.011575877929687499,0.051783766
2.064,0.008851927,0.047838003906249996,0.067119664,0.011574637,0.051781015624999996
2.068,0.008849479,0.047837164,0.067119969,0.011573598,0.051780414062499995
2.072,0.00884958,0.047838070312499995,0.067123391,0.011572927,0.051781922
2.076,0.008848474,0.047838738,0.067123953,0.011571821289062499,0.051783164
2.08,0.008848909,0.047839746093749996,0.067123219,0.01157115,0.051782961
2.084,0.008847534,0.04783941,0.067119633,0.011570413,0.051779777
2.088,0.008844048,0.047839008,0.067120641,0.011571251,0.051779242
2.092,0.008844551,0.047840215,0.067124492,0.011573027,0.051780852
2.096,0.008844551,0.047841289,0.0671255,0.011573598,0.051781988
2.1,0.008844048,0.04784216,0.067124328,0.011573464,0.051782125
2.104,0.0088415,0.047841793,0.067120641,0.011572224,0.051778035
2.108,0.008840326,0.04784102,0.067121242,0.011571385,0.051777563
2.112,0.008841936,0.047843098,0.067124156,0.011571419,0.051778703
2.116,0.008841734,0.047844605468749996,0.067124898,0.011571620117187499,0.051780984
2.12,0.008842874,0.047844941,0.067123719,0.011571419,0.051782023
2.124,0.008839856,0.047844773437499995,0.067120469,0.011570815429687499,0.051780210937499994
2.128,0.008837845,0.047845211,0.067121508,0.011571485351562499,0.051779141
2.132,0.008839253,0.047846316,0.06712382,0.011572592,0.051778671874999994
2.136,0.008841667,0.047847355,0.067123391,0.011572592,0.051777867
2.14,0.008841835,0.047848227,0.067122281,0.011572391,0.051776895
2.144,0.008838146,0.047848128906249995,0.067118695,0.011571821289062499,0.051776156
2.148,0.008838247,0.047847960937499996,0.067118391,0.011570949,0.051775285156249996
2.152,0.008839152,0.047849367,0.067120336,0.011570446,0.051775249999999995
2.156,0.008839957,0.047850207031249994,0.067119836,0.011569172,0.051774613
2.16,0.008840762,0.047849133,0.067117891,0.011568803710937499,0.051773875
2.164,0.008838851,0.047846652,0.067112828,0.011567831,0.051770523
2.168,0.008836403,0.047845746093749995,0.067112422,0.011567294921874999,0.051768949
2.172,0.008836169,0.047847422,0.067115508,0.011567999,0.051770758
2.176,0.008837979,0.047847691,0.067114133,0.011569105,0.051771461
2.18,0.008836906,0.047847757812499996,0.067113258,0.011570413,0.051771929687499996
2.184,0.008835532,0.047846785156249995,0.067110109,0.011570849,0.051770085937499995
2.188,0.008835297,0.047846050781249996,0.067109977,0.011570849,0.05176841
2.192,0.008836337,0.047846184,0.067110984,0.011571485351562499,0.051769249999999996
2.196,0.008837744,0.047845547,0.067110812,0.011570748,0.051768613
2.2,0.008837845,0.047844605468749996,0.067109711,0.011569876,0.051768344
2.204,0.008835397,0.04784407,0.06710632,0.011568938,0.051766566
2.208,0.008834057,0.047843332,0.067107695,0.011568467773437499,0.051766164062499995
2.212,0.008834225,0.047843703,0.067110883,0.011569675,0.051767339843749996
2.216,0.008835163,0.047843367,0.067109039,0.011570849,0.051767707
2.22,0.008837007,0.047843031,0.067107461,0.011569943,0.051763917968749996
2.224,0.008836403,0.047841086,0.067102367,0.011566825,0.051759625
2.228,0.008833956,0.047840015624999996,0.067101461,0.011565551,0.051758184
2.232,0.008835767,0.047840449,0.067104477,0.011565718749999999,0.051759727
2.236,0.008835465,0.047840281,0.067104609,0.011565015,0.051760598
2.24,0.008833889,0.047842027343749996,0.067105719,0.01156545,0.051762441
2.244,0.008833889,0.047842027343749996,0.067102094,0.011565082,0.051760332031249995
2.248,0.008833386,0.047841957,0.067100789,0.011564881,0.051758218749999994
2.252,0.008834023,0.047843066406249996,0.067102805,0.011565718749999999,0.051758820312499995
2.256,0.008835432,0.047842964843749995,0.067102469,0.011564444,0.051758253906249996
2.26,0.008833486,0.047843266,0.067102133,0.011564177,0.051758285
2.264,0.008830805,0.047842527343749996,0.067098977,0.011564277,0.051757582
2.268,0.008831609,0.047841355,0.067098781,0.011563707,0.051757113281249996
2.272,0.00883285,0.047842496,0.067101594,0.011564478515624999,0.051758016
2.276,0.008834392,0.047843602,0.067102031,0.011564746,0.051757582
2.28,0.00883419,0.04784407,0.067100156,0.011564981445312499,0.051756441
2.284,0.008830134,0.047843535,0.067097133,0.011564243,0.05175416
2.288,0.008829865,0.047843602,0.067098641,0.011563438,0.051752117187499995
2.292,0.008832883,0.047844003906249995,0.067100484,0.011563136718749999,0.051752316
2.296,0.008832347,0.047843,0.067100086,0.011563337890624999,0.051754934
2.3,0.008832179,0.047842496,0.06709925,0.011564712890624999,0.051756477
2.304,0.008830536,0.047841757812499996,0.067096164,0.011566591,0.051754531
2.308,0.008829563,0.047840886718749996,0.067097102,0.011567999,0.051752754
2.312,0.008830704,0.047841957,0.067101094,0.011569071,0.051752855
2.316,0.008832414,0.047841254,0.067100016,0.01156877,0.051752921874999996
2.32,0.008830469,0.047840851562499995,0.067099078,0.011568970703124999,0.051753289
2.324,0.008829497,0.047839980468749994,0.067096227,0.011568502,0.051751179687499996
2.328,0.008828323,0.047838503906249996,0.067095461,0.011568668945312499,0.05174957
2.332,0.008828457,0.047839379,0.067098211,0.011569976562499999,0.051752184
2.336,0.008830704,0.047840148,0.067098008,0.011569976562499999,0.051752820312499996
2.34,0.008832917,0.047840082031249995,0.067095859,0.011569709,0.051749031
2.344,0.008828658,0.047838503906249996,0.067093109,0.011569172,0.051747289
2.348,0.008829262,0.047837434,0.067092273,0.011568233398437499,0.05174598
2.352,0.008831374,0.047837297,0.067092875,0.011567429,0.051745277
2.356,0.008831341,0.047837063,0.067092641,0.011566121,0.051744102
2.36,0.008830604,0.047836492187499996,0.067091969,0.011565786132812499,0.051743969
2.364,0.008826915,0.047836426,0.067089289,0.011566591,0.051742660156249995
2.368,0.008826513,0.047835824218749996,0.067089523,0.011566893,0.051741687499999994
2.372,0.008826546,0.047835992187499995,0.067093719,0.011567496093749999,0.051743535
2.376,0.008826345,0.047837031249999995,0.067096094,0.011567461914062499,0.05174625
2.38,0.008829095,0.047838102,0.067095422,0.011565384,0.051746785156249996
2.384,0.008829329,0.047835992187499995,0.067090867,0.011563337890624999,0.051744102
2.388,0.008828859,0.047833980468749995,0.067089594,0.011561963867187499,0.051742527
2.392,0.008830368,0.047833878906249995,0.067091867,0.011561461,0.051742929687499994
2.396,0.008830101,0.047834984,0.067093211,0.011560287,0.051743464843749996
2.4,0.008830771,0.047836160156249995,0.067092914,0.01155794,0.05174434
2.404,0.008828391,0.047834953124999996,0.067088953,0.011556935,0.05174159
2.408,0.00882725,0.047832906,0.067088453,0.011557035,0.051740749999999995
2.412,0.008828424,0.047833945,0.067091539,0.011557571289062499,0.051742395
2.416,0.008829765,0.047834851562499996,0.067092406,0.011558410156249999,0.051742929687499994
2.42,0.008829362,0.047834281,0.067092773,0.011559348632812499,0.051742895
2.424,0.008826848,0.047833812499999996,0.067090164,0.011558879,0.051740113
2.428,0.008825104,0.04783418,0.067090867,0.011557772460937499,0.05173941
2.432,0.008826681,0.047835285,0.067093719,0.011557304,0.051740516
2.436,0.008825071,0.047836461,0.067095391,0.0115567,0.051744371
2.44,0.008828223,0.047837098,0.067094219,0.0115567,0.051744035
2.444,0.00882658,0.047836227,0.067091234,0.01155566,0.051741254
2.448,0.008825675,0.047834715,0.067090195,0.011555325195312499,0.051740449
2.452,0.008827652,0.047834617,0.067092039,0.011556465,0.051741855
2.456,0.00882829,0.047834883,0.067091602,0.011557505,0.051742191
2.46,0.008830201,0.047835824218749996,0.067089859,0.011558275,0.051741453124999996
2.464,0.008826948,0.047835519531249995,0.067087008,0.011558511,0.051739609374999995
2.468,0.008823831,0.047835621093749996,0.067089289,0.011558175,0.051740851562499995
2.472,0.008826646,0.047836629,0.067091773,0.011558544,0.051742929687499994
2.476,0.008828356,0.047837164,0.067091266,0.011558913085937499,0.051742629
2.48,0.008829161,0.047837398,0.067090797,0.011559650390624999,0.051743199
2.484,0.008827116,0.047836461,0.067087711,0.011559818,0.051741925781249996
2.488,0.008825909,0.047835656,0.067086711,0.011560455,0.051742929687499994
2.492,0.008827284,0.047836293,0.067089727,0.011563136718749999,0.051746047
2.496,0.008826882,0.047837129,0.067092203,0.011564311,0.051748461
2.5,0.008828391,0.047838003906249996,0.067091469,0.011564947,0.051748796874999996
2.504,0.008828391,0.047837668,0.06708607,0.01156478,0.051744574
2.508,0.008829128,0.047836395,0.067084023,0.011564378,0.051741188
2.512,0.00882943,0.047836324,0.067086906,0.011565384,0.051740617
2.516,0.008828692,0.047837031249999995,0.067088352,0.011566255,0.051742023
2.52,0.008829195,0.047837934,0.067087445,0.011566657226562499,0.051743867
2.524,0.008828223,0.047836964843749996,0.067082719,0.011565718749999999,0.051742461
2.528,0.008828625,0.047835922,0.067081781,0.011564444,0.051740215
2.532,0.008828391,0.047836227,0.067086203,0.011565148437499999,0.051741789062499995
2.536,0.008828524,0.047836563,0.06708768,0.011566154296874999,0.051744171874999995
2.54,0.008828859,0.047837668,0.067088586,0.011565819,0.051743734374999996
2.544,0.008827149,0.0478375,0.0670855,0.01156468,0.051741789062499995
2.548,0.008824501,0.047836059,0.067085672,0.011565819,0.051741621093749995
2.552,0.00882534,0.047835824218749996,0.067088852,0.011569038085937499,0.051743969
2.556,0.008827418,0.047835789062499995,0.067088516,0.011570245117187499,0.051744503906249996
2.56,0.008827049,0.047836629,0.067087711,0.011570077,0.051745613
2.564,0.008828021,0.047835152,0.06708225,0.011569139,0.051743602
2.568,0.008826948,0.047831363,0.067079734,0.011568535156249999,0.051741086
2.572,0.008825272,0.047831699218749996,0.067083289,0.011567964843749999,0.051743632812499996
2.576,0.008826178,0.047833746,0.067084156,0.011567563,0.051745344
2.58,0.008827552,0.047834715,0.067082984,0.011568467773437499,0.051745144531249995
2.584,0.008826244,0.047833309,0.067079266,0.01156877,0.051743535
2.588,0.008824736,0.0478315,0.067079969,0.011568065,0.051743566
2.592,0.008826278,0.047831566,0.067082984,0.0115681,0.051745547
2.596,0.008825071,0.047831363,0.067083922,0.011568367,0.051747422
2.6,0.008826077,0.047832203,0.06708332,0.011568803710937499,0.051748461
2.604,0.008826747,0.047831398,0.067078289,0.011567227539062499,0.051745644531249996
2.608,0.008825675,0.047830023,0.067077219,0.011565718749999999,0.051744773437499995
2.612,0.008827351,0.047830726562499995,0.067080102,0.011565618,0.051745477
2.616,0.008825843,0.047832570312499996,0.067081812,0.011566021,0.051747523
2.62,0.008826848,0.047832906,0.067081078,0.011566255,0.051749167968749996
2.624,0.008825139,0.047831097656249995,0.067078328,0.011565518,0.051747793
2.628,0.0088244,0.047829988,0.067077086,0.011564209960937499,0.051744874999999996
2.632,0.008823696,0.047830961,0.067081008,0.011563774,0.051746281
2.636,0.008824267,0.047832402,0.06708275,0.011562098,0.05174702
2.64,0.008825775,0.047833543,0.067082281,0.011561025,0.051746617187499996
2.644,0.008825541,0.047832605,0.067077719,0.011559617,0.051743266
2.648,0.008825205,0.047830023,0.067076352,0.01155794,0.051741957
2.652,0.008827619,0.047829352,0.067077688,0.011556499,0.051742761718749995
2.656,0.008827284,0.047830156,0.067078695,0.011554688,0.051742293
2.66,0.008827451,0.047830793,0.067079266,0.011552441406249999,0.05174209
2.664,0.008826345,0.047830457031249995,0.067075945,0.011550698242187499,0.051740082031249995
2.668,0.008826445,0.047829519531249996,0.067074336,0.011549928,0.051737934
2.672,0.008828356,0.047829585937499995,0.067076383,0.011550732,0.051737867187499995
2.676,0.008829095,0.04782932,0.067075641,0.011550833007812499,0.051737164
2.68,0.008828021,0.047829754,0.067074836,0.011550497070312499,0.051737266
2.684,0.008822657,0.047829519531249996,0.067073461,0.011550564,0.051737097656249995
2.688,0.008821752,0.047829285,0.067073938,0.011551973,0.051737297
2.692,0.00882259,0.047830828124999995,0.067077523,0.011553816406249999,0.051739945
2.696,0.008823462,0.047831765624999995,0.067078258,0.011555627,0.051742293
2.7,0.008824199,0.047832035,0.067078125,0.011557505,0.051742258
2.704,0.008820311,0.047832234,0.067075781,0.011558644531249999,0.051740316
2.708,0.008816454,0.047831597656249995,0.067076984,0.011560085937499999,0.051741687499999994
2.712,0.008816991,0.047832707,0.067079969,0.01156126,0.051744605468749996
2.716,0.008818063,0.047833878906249995,0.067080672,0.01156136,0.051746484
2.72,0.008818601,0.047835285,0.067080336,0.011561863,0.051747188
2.724,0.008815616,0.047834851562499996,0.067077891,0.011562902343749999,0.051746719
2.728,0.008813672,0.047833980468749995,0.067078594,0.011563707,0.051748059
2.732,0.008815214,0.047834449,0.067081812,0.011564277,0.051750777
2.736,0.008816052,0.047835957,0.067083992,0.011563372,0.051752586
2.74,0.008815549,0.0478375,0.067084492,0.011563573,0.051754363
2.744,0.008813202,0.047837129,0.067081008,0.011562936,0.051754664
2.748,0.008810587,0.047837129,0.067080977,0.011562533,0.051753426
2.752,0.008810989,0.047838976562499996,0.067085,0.011563305,0.051754296874999994
2.756,0.008812163,0.047837902343749995,0.067084867,0.011563808,0.051755101562499996
2.76,0.008813705,0.047838003906249996,0.067083523,0.011563908203124999,0.051754062499999996
2.764,0.008814242,0.047836563,0.067077625,0.011561931,0.051750273
2.768,0.008809682,0.047834785,0.06707732,0.011560958,0.051750508
2.772,0.008811861,0.047834551,0.067080234,0.011561528,0.05175198
2.776,0.008812397,0.047834047,0.067080844,0.011560924804687499,0.051752184
2.78,0.008811761,0.047834617,0.06708168,0.01156012,0.05175366
2.784,0.008810587,0.047834313,0.067078563,0.011558845703124999,0.051750844
2.788,0.008808006,0.047833375,0.067078094,0.011557974,0.051748964843749995
2.792,0.008808341,0.047833844,0.067081375,0.011559248,0.051748496
2.796,0.008809716,0.047833710937499996,0.067081914,0.011559617,0.051747488
2.8,0.008808844,0.047834313,0.067084195,0.011558443,0.051748898437499996
2.804,0.008809313,0.047834047,0.067080977,0.011557169,0.051745847656249996
2.808,0.008809179,0.047832137,0.067076445,0.011556163,0.051742629
2.812,0.008810084,0.047830324,0.06707618,0.011556331054687499,0.051741422
2.816,0.008808308,0.047828714843749995,0.067075844,0.01155831,0.051741188
2.82,0.008808509,0.047828281,0.06707507,0.011558342773437499,0.051739980468749995
2.824,0.008807871,0.047828078,0.067072125,0.011557269531249999,0.051734546874999995
2.828,0.008807503,0.047826672,0.067070047,0.011555929,0.05172952
2.832,0.008808811,0.047826433593749995,0.067072086,0.011556499,0.051727039
2.836,0.008811023,0.047825832,0.067070344,0.011556298,0.051722511718749996
2.84,0.008810353,0.047825629,0.067068164,0.011553917,0.051718621
2.844,0.008808609,0.047823082,0.06706418,0.011550195312499999,0.051715637
2.848,0.008805859,0.047821172,0.06706307,0.011546709,0.05171252
2.852,0.008807402,0.047821406,0.067065891,0.011545200195312499,0.051711613
2.856,0.008808374,0.047822445312499996,0.067066422,0.011544864257812499,0.05171175
2.86,0.008809279,0.047821406,0.06706475,0.011544999023437499,0.051712117
2.864,0.008807268,0.047820133,0.067060156,0.011544999023437499,0.05170927
2.868,0.008806664,0.047819027,0.067058547,0.011545267,0.05170682
2.872,0.008808911,0.047818523437499996,0.067060453,0.011545367187499999,0.051706219
2.876,0.00880948,0.047817652343749996,0.067060289,0.011545401,0.051706754
2.88,0.008807905,0.047817988,0.067061258,0.011546608,0.05170873
2.884,0.008805826,0.047817617187499994,0.067058344,0.011546943359374999,0.051708664
2.888,0.008804619,0.047817684,0.067058242,0.011546507812499999,0.051708496
2.892,0.008806329,0.047819395,0.06706143,0.011545267,0.051709102
2.896,0.008806061,0.047819496,0.067061961,0.011545267,0.051710508
2.9,0.008806966,0.047819730468749995,0.067062,0.011545837,0.051711210937499995
2.904,0.008807066,0.047818691406249995,0.067057539,0.011545568,0.051708027
2.908,0.008804787,0.047817684,0.067056867,0.011545535,0.051706621093749995
2.912,0.008805391,0.047818289,0.067060352,0.011545434570312499,0.051709203
2.916,0.008805859,0.047819027,0.067061297,0.011544931640624999,0.051709738
2.92,0.008806731,0.047819359374999995,0.067060727,0.011543591,0.051709671874999995
2.924,0.008805558,0.047819227,0.067056664,0.011541579,0.051707426
2.928,0.008803547,0.047818289,0.067056164,0.011541411,0.051706586
2.932,0.008806195,0.047818926,0.067059281,0.011541176757812499,0.051708261718749995
2.936,0.008807838,0.047819797,0.067059148,0.011540573,0.051707121093749996
2.94,0.00880824,0.047819898,0.06705918,0.011540238,0.051708261718749995
2.944,0.008807033,0.047818656,0.067057305,0.011538795898437499,0.051707492187499995
2.948,0.008806497,0.047817652343749996,0.067056367,0.011537757,0.051703871
2.952,0.008807402,0.047818625,0.067058445,0.011538896,0.051704375
2.956,0.008805558,0.047820637,0.067060859,0.011540103515624999,0.051705210937499996
2.96,0.008807033,0.047821875,0.067060453,0.011541411,0.05170377
2.964,0.008806463,0.047820367,0.067056133,0.011541311,0.051700484374999994
2.968,0.008803044,0.047819460937499995,0.067055766,0.011541143,0.051700754
2.972,0.008802306,0.047821640624999995,0.067061156,0.011543188476562499,0.051703570312499995
2.976,0.008806229,0.047822343749999996,0.067060492,0.011544361328124999,0.051701859
2.98,0.008806027,0.047822511718749995,0.067060688,0.011543591,0.051701992
2.984,0.008803145,0.047822379,0.067059719,0.011542651,0.051702058593749996
2.988,0.008800294,0.047822410156249995,0.067060023,0.011542953,0.051701121
2.992,0.008801702,0.047823051,0.067062805,0.011544931640624999,0.051703300781249996
2.996,0.008804083,0.047823753906249995,0.067062438,0.011544931640624999,0.051702929687499996
3,0.008805089,0.047824223,0.067061297,0.011543154,0.051702395
3.004,0.008803312,0.047822914,0.067056734,0.011540138,0.051699477
3.008,0.008801903,0.047820734,0.067054688,0.011537488,0.051697367187499996
3.012,0.008802642,0.047820469,0.067057539,0.011536482,0.051698371
3.016,0.008803681,0.047820871093749995,0.067057273,0.011534470703124999,0.051697535156249995
3.02,0.008803982,0.047821137,0.0670565,0.011532761,0.051696629
3.024,0.008804083,0.047820969,0.067053516,0.011531051,0.051694414
3.028,0.008803814,0.047820969,0.06705107,0.011528738,0.051690023437499996
3.032,0.008801133,0.047821238,0.067056297,0.011528503,0.051692906
3.036,0.008802507,0.04782107,0.067057508,0.011529040039062499,0.051693777
3.04,0.008803781,0.047821508,0.067057375,0.011529509,0.051694816406249997
3.044,0.008803547,0.047821809,0.067053445,0.011528269,0.051692304687499996
3.048,0.008801535,0.047820332031249996,0.067052477,0.011525720703124999,0.051690559
3.052,0.008800965,0.047820332031249996,0.067056195,0.011524378906249999,0.051692672
3.056,0.008802775,0.047820637,0.067056266,0.011522635742187499,0.051693008
3.06,0.00880311,0.047820433593749996,0.067055664,0.011520993,0.051692101562499995
3.064,0.008800965,0.047819898,0.067051406,0.011519149414062499,0.051688984
3.068,0.008800193,0.047817953,0.06704882,0.01151821,0.051686504
3.072,0.008799523,0.047816711,0.067052477,0.011519115,0.051689921874999996
3.076,0.008798685,0.047816511718749996,0.067055055,0.01151868,0.051693039062499994
3.08,0.008800462,0.047816679687499995,0.067054188,0.011518880859374999,0.05169502
3.084,0.008799087,0.047815504,0.067050867,0.011520121,0.051694316406249996
3.088,0.008796975,0.047813527343749995,0.067049727,0.011522132812499999,0.051689988281249995
3.092,0.008796773,0.047813863,0.067053148,0.011524077148437499,0.051690828
3.096,0.008799021,0.047814969,0.067052813,0.011524378906249999,0.051690124999999996
3.1,0.008799087,0.047815707031249995,0.067052406,0.011522904296874999,0.051690156
3.104,0.008796941,0.047815504,0.0670505,0.011521597,0.051689285
3.108,0.008795701,0.047813727,0.067048453,0.011520691,0.05168875
3.112,0.008796438,0.047813563,0.067051937,0.011521194,0.051691734
3.116,0.008797578,0.047813996,0.067052914,0.011520892578124999,0.051692504
3.12,0.008798316,0.047814699,0.067053383,0.011521228,0.051693074218749996
3.124,0.008800563,0.047812688,0.06704825,0.011521529,0.051689789
3.128,0.008798953,0.047810039,0.067045234,0.011522233,0.051686133
3.132,0.00879835,0.047810109,0.067048992,0.011524580078124999,0.051686101562499996
3.136,0.008797176,0.047811148,0.067050461,0.011526559,0.051687273
3.14,0.00879664,0.047812757812499995,0.067051602,0.011528135,0.051689555
3.144,0.008796808,0.047813257812499996,0.067048047,0.011528503,0.051687844
3.148,0.008795868,0.047812152,0.067046172,0.011528839,0.051685598
3.152,0.008795734,0.047812488281249996,0.067049695,0.011530515,0.051686301
3.156,0.008796237,0.047812453,0.067049992,0.011531923,0.051687844
3.16,0.008796773,0.047812688,0.067050164,0.011533297851562499,0.051689453
3.164,0.008794896,0.047812117187499996,0.067048789,0.011533264,0.051688246
3.168,0.00879265,0.047811883,0.067047781,0.011533633,0.051686167968749995
3.172,0.008794595,0.047812355,0.067050531,0.011535074,0.051686605
3.176,0.008795131,0.047812488281249996,0.067051102,0.011535845703124999,0.05168848
3.18,0.008795231,0.047813023,0.06705043,0.011537187,0.051687074
3.184,0.008793053,0.047812789,0.067046977,0.011536885,0.051686269531249995
3.188,0.008792885,0.047811883,0.067044664,0.011535979492187499,0.051684559
3.192,0.008792751,0.04781202,0.067047547,0.011537254,0.051686605
3.196,0.00879503,0.047811414062499995,0.067047984,0.011537187,0.051687742187499996
3.2,0.008798148,0.04781041,0.067046438,0.011535979492187499,0.051687074
3.204,0.008796104,0.047809371,0.067043258,0.011534605468749999,0.051684457
3.208,0.008792516,0.047807793,0.067041812,0.011534605468749999,0.051683218749999996
3.212,0.008792784,0.047807222656249995,0.067045633,0.011534907,0.051684523
3.216,0.008793488,0.047807559,0.067046477,0.011534035156249999,0.051685633
3.22,0.008792516,0.047808398437499997,0.067046609,0.011532325,0.051686437499999995
3.224,0.008791343,0.047808832,0.067043859,0.011530715820312499,0.051685195312499994
3.228,0.008790438,0.047807457,0.067041945,0.011529408203124999,0.051682344
3.232,0.008791275,0.047807762,0.067046172,0.011528537109374999,0.051684121
3.236,0.008793723,0.047808027,0.067046477,0.011527229492187499,0.051685195312499994
3.24,0.008793287,0.047808398437499997,0.0670455,0.01152676,0.051686637
3.244,0.008792248,0.047807258,0.067042688,0.011525988,0.051685094
3.248,0.00879151,0.047805480468749995,0.067041852,0.011525251,0.051684023
3.252,0.008793119,0.047804945,0.067044766,0.011525653320312499,0.051685195312499994
3.256,0.008794059,0.047804879,0.067043961,0.011526089,0.051684757812499996
3.26,0.008792952,0.047805144531249996,0.067043289,0.01152686,0.051684691
3.264,0.008790806,0.047804476562499996,0.067040773,0.011527162,0.051684089843749996
3.268,0.008790504,0.047802699218749994,0.06704057,0.011526928,0.051680805
3.272,0.008790739,0.047800754,0.067044766,0.011526491,0.051682379
3.276,0.008791879,0.047799949,0.067045203,0.011525687,0.051682582
3.28,0.00879426,0.047799344,0.067043125,0.011524647460937499,0.051682613
3.284,0.008790303,0.047797836,0.067040945,0.011523138671874999,0.05168134
3.288,0.008787018,0.047796863,0.067039703,0.011522703124999999,0.05167973
3.292,0.008788124,0.047797,0.067042953,0.011523206054687499,0.051681172
3.296,0.008790303,0.047797066,0.067043594,0.011524011,0.051681172
3.3,0.008791074,0.047797234,0.067042555,0.011525217773437499,0.051680402
3.304,0.008787285,0.047796293,0.067041109,0.011526827,0.051681473
3.308,0.008788861,0.047794785,0.067038094,0.01152733,0.051678656249999996
3.312,0.008789599,0.047794249999999996,0.067040336,0.011526994,0.051678086
3.316,0.008789867,0.047794148437499996,0.067040242,0.011526893554687499,0.051678488
3.32,0.00879037,0.047794316406249995,0.06704007,0.011526559,0.051679527
3.324,0.008789364,0.047793879,0.067036313,0.011525586,0.051677281
3.328,0.008786515,0.047793074218749995,0.067035414,0.011524313,0.051676109
3.332,0.00878695,0.047793477,0.067039102,0.01152505,0.051678054687499995
3.336,0.008788057,0.047794417968749996,0.067039336,0.011525586,0.051678691
3.34,0.008790772,0.047793914,0.067037492,0.01152676,0.051678054687499995
3.344,0.008789633,0.047791836,0.067033734,0.011527799,0.051675641
3.348,0.00878819,0.047790328124999996,0.067031625,0.011527263,0.051673160156249995
3.352,0.008789297,0.047790461,0.067033734,0.011527229492187499,0.051673293
3.356,0.008787688,0.047791129,0.067036313,0.011527431,0.051674199218749994
3.36,0.008788794,0.047791297,0.067035844,0.011527062,0.051674566
3.364,0.00878695,0.047789789,0.067033398,0.011526659179687499,0.051672051
3.368,0.008784201,0.047789188,0.067033133,0.011526425,0.05167118
3.372,0.008786146,0.047789656,0.067035313,0.011526692,0.051671917968749995
3.376,0.008788023,0.047789050781249995,0.067034641,0.011527095,0.051670746
3.38,0.008788426,0.047789285,0.067035211,0.011526893554687499,0.051670277343749994
3.384,0.008786548,0.047788382812499995,0.067031625,0.011525217773437499,0.051668668
3.388,0.008782659,0.047787645,0.067029875,0.011525150390624999,0.051668266
3.392,0.008783497,0.047788582,0.067034234,0.011526189,0.051670441406249996
3.396,0.00878571,0.047789523437499995,0.067035883,0.011526994,0.051670609374999996
3.4,0.008786447,0.047790762,0.067035813,0.011527564,0.051669839843749996
3.404,0.008784637,0.047790863,0.067033664,0.011526994,0.051669035
3.408,0.008784167,0.047789824,0.067031523,0.011526390624999999,0.051668699218749996
3.412,0.008785844,0.047788449,0.067032695,0.011527396484374999,0.051669605
3.416,0.008787018,0.047787074218749996,0.067032563,0.011530079,0.051669473
3.42,0.008786816,0.047785363,0.067032961,0.011532057,0.051670945
3.424,0.008785341,0.047784762,0.067030211,0.011532291992187499,0.051669336
3.428,0.008783832,0.047784492,0.067028203,0.011531956054687499,0.051666387
3.432,0.008784469,0.047785734,0.067032125,0.011533230468749999,0.051668398
3.436,0.008785408,0.047786941,0.067033,0.011534772460937499,0.051668363
3.44,0.008787051,0.047787945312499996,0.0670335,0.011535275390624999,0.051668097656249995
3.444,0.008786515,0.047787813,0.067030617,0.011534739,0.051666219
3.448,0.008785441,0.047786101562499995,0.067026992,0.011532761,0.051664645
3.452,0.008786883,0.047784828,0.06702743,0.011531051,0.051662801
3.456,0.008787018,0.047784594,0.067028172,0.011529509,0.051662129
3.46,0.008788225,0.047785363,0.067028367,0.01152857,0.051661324
3.464,0.008787219,0.047784762,0.067025656,0.011528604,0.051658843749999996
3.468,0.008785978,0.04778352,0.067023578,0.011527396484374999,0.051654652343749996
3.472,0.008786548,0.047784426,0.067027297,0.011527095,0.051655086
3.476,0.0087899,0.047784828,0.067025852,0.011527195,0.051653914
3.48,0.008789867,0.047785164062499996,0.067025953,0.011526390624999999,0.051652238
3.484,0.008787688,0.047785062499999996,0.067023844,0.011526089,0.051651801
3.488,0.008787353,0.04778275,0.067019656,0.011523875976562499,0.051649422
3.492,0.008789264,0.047782347656249995,0.067022672,0.011521026,0.051649422
3.496,0.0087898,0.047783184,0.067024648,0.011520154,0.051649992
3.5,0.008790303,0.047783320312499995,0.067024008,0.011519383789062499,0.051650257812499996
3.504,0.008789532,0.047781910156249996,0.067018711,0.011518981,0.051647308593749996
3.508,0.008787855,0.047779796874999995,0.067017305,0.011518646484374999,0.051644059
3.512,0.008790068,0.047779999999999996,0.067020828,0.011517807617187499,0.051645835937499995
3.516,0.008790438,0.047780367,0.067021461,0.011516937,0.051647945
3.52,0.008790571,0.047780738,0.06702193,0.011516333007812499,0.051648414062499995
3.524,0.008790169,0.047780367,0.067018648,0.011514656,0.05164607
3.528,0.008789733,0.047778992,0.067017305,0.011512443,0.051645464843749996
3.532,0.008792214,0.047777886718749996,0.067019453,0.011512209,0.051646
3.536,0.008791107,0.047778425781249995,0.067020289,0.011513315429687499,0.051646707031249996
3.54,0.008793254,0.047778727,0.067018211,0.011514086,0.051646637
3.544,0.008793455,0.047778223,0.067015492,0.011514623,0.051644059
3.548,0.008790705,0.047777586,0.067015797,0.011515428,0.051644156249999996
3.552,0.008792214,0.047778457,0.067018883,0.011517338867187499,0.051645598
3.556,0.008792852,0.047778559,0.067019484,0.011519819335937499,0.051646605468749995
3.56,0.008793421,0.04777859,0.067020992,0.011522233,0.051648281
3.564,0.008794494,0.047777051,0.067017539,0.011522401367187499,0.05164657
3.568,0.008792382,0.047775473,0.067014758,0.011521094,0.051643422
3.572,0.008792751,0.047775305,0.067016297,0.011521361,0.051644227
3.576,0.008795098,0.04777507,0.067015898,0.011521295,0.051645398
3.58,0.008794762,0.047775941,0.067016102,0.011521764,0.051645332
3.584,0.008791879,0.047775809,0.067013484,0.011523038,0.051645902343749994
3.588,0.008790136,0.047774637,0.067011977,0.011524077148437499,0.051645363281249995
3.592,0.00879037,0.047775976562499996,0.067015531,0.011524949218749999,0.051648148
3.596,0.008794494,0.047775707031249996,0.067014422,0.011524714843749999,0.051648617187499996
3.6,0.00879674,0.047775137,0.067013648,0.011521965,0.051646707031249996
3.604,0.008795098,0.047774871,0.0670105,0.011519451,0.051642851562499995
3.608,0.00879322,0.047774332,0.06700943,0.011518244,0.051639766
3.612,0.008793891,0.04777316,0.067012414,0.011518546,0.051641676
3.616,0.008794561,0.04777393,0.067013516,0.011520121,0.051642883
3.62,0.008794394,0.047775441,0.067014023,0.011521261,0.051643586
3.624,0.008792583,0.047775609,0.067012844,0.011520624023437499,0.051644156249999996
3.628,0.008789196,0.047774637,0.067011977,0.011519618,0.051643621093749995
3.632,0.00879084,0.047776445,0.067016031,0.011519183,0.051644559
3.636,0.008794159,0.047777082,0.067015695,0.011518143554687499,0.051641542968749996
3.64,0.008794729,0.047775003906249995,0.067014555,0.011517104,0.051641644531249996
3.644,0.008795601,0.047773695312499996,0.067010937,0.011515830078124999,0.051639563
3.648,0.008792952,0.04777259,0.067008859,0.011514522,0.051636883
3.652,0.008791477,0.047772824218749996,0.067013516,0.011515025,0.051639699218749995
3.656,0.008792314,0.047773293,0.067013953,0.011516165,0.051640570312499995
3.66,0.008791309,0.047774031249999994,0.067014688,0.011517002929687499,0.051641542968749996
3.664,0.008792382,0.047773964843749996,0.067012273,0.011517070312499999,0.051641171874999996
3.668,0.008792616,0.04777232,0.067008586,0.011515494140624999,0.051638523
3.672,0.008791879,0.04777202,0.067010734,0.01151536,0.051639094
3.676,0.008791343,0.047772523,0.067012883,0.011516668,0.05164218
3.68,0.008792349,0.047773527,0.067013148,0.011518008789062499,0.051642715
3.684,0.008793119,0.047772121093749995,0.067008789,0.011519183,0.051641441406249995
3.688,0.008791309,0.047769406,0.067006305,0.011519618,0.051640805
3.692,0.008791376,0.047768602,0.067010766,0.011521697,0.051642851562499995
3.696,0.008793958,0.047769339843749994,0.067011875,0.011523138671874999,0.051641074
3.7,0.008793723,0.047770242,0.067012039,0.011524949218749999,0.051640637
3.704,0.008791544,0.047770578,0.067011773,0.011527431,0.051641542968749996
3.708,0.00879094,0.047770848,0.067010063,0.011528336,0.051640438
3.712,0.008791544,0.047772086,0.067012141,0.011528671,0.051640102
3.716,0.00879332,0.047772957,0.067011938,0.011528437,0.051639632812499996
3.72,0.008793924,0.047772121093749995,0.06701157,0.011527799,0.051638758
3.724,0.008793053,0.047771418,0.067009055,0.011527833,0.051636848
3.728,0.008791477,0.04777041,0.067006406,0.011526692,0.051632726562499995
3.732,0.008791376,0.047770141,0.067010164,0.011525988,0.051632726562499995
3.736,0.008790705,0.047770613,0.067012273,0.011525922,0.051634234
3.74,0.008793689,0.047772121093749995,0.067010937,0.011524647460937499,0.051632824
3.744,0.008790202,0.047771113,0.067008422,0.011522333984374999,0.051633195
3.748,0.008784101,0.047770848,0.067009227,0.011521126953124999,0.051633129
3.752,0.008783329,0.047771418,0.067011906,0.011522804,0.051634234
3.756,0.008783865,0.047771348,0.067013688,0.011524479,0.051636344
3.76,0.008785341,0.04777202,0.067014758,0.011525217773437499,0.051638926
3.764,0.008786179,0.047771551,0.067010898,0.011525553,0.051636414
3.768,0.008781586,0.047770812499999996,0.067010297,0.011524547,0.051635676
3.772,0.008782927,0.047770379,0.067013078,0.011525318,0.051636480468749996
3.776,0.008782894,0.047769574,0.067013117,0.011525821,0.051638390624999995
3.78,0.008780681,0.047769773437499996,0.067014688,0.011526156249999999,0.051641542968749996
3.784,0.008780178,0.047769339843749994,0.067011773,0.011525720703124999,0.051640102
3.788,0.008778267,0.047768199218749995,0.067010094,0.011524378906249999,0.051637953
3.792,0.0087784,0.047768297,0.067013281,0.011524714843749999,0.051639832
3.796,0.008778267,0.047769371,0.067014156,0.011525687,0.051640738
3.8,0.008780714,0.047769070312499995,0.067012375,0.011525720703124999,0.051639496
3.804,0.008780781,0.047767492187499996,0.067008156,0.011525754,0.051638426
3.808,0.00877659,0.047766355,0.067006914,0.011526491,0.051635676
3.812,0.008775752,0.047766121093749996,0.067009766,0.011528905273437499,0.051635609374999995
3.816,0.008779474,0.047766219,0.06700825,0.011530917,0.051633563
3.82,0.008777998,0.047765414,0.067008961,0.011531353,0.051633765624999994
3.824,0.008776926,0.047764812499999997,0.067007586,0.011530615,0.051632390624999996
3.828,0.00877535,0.047763336,0.06700557,0.011529542968749999,0.051630949
3.832,0.008776121,0.047763203,0.067007547,0.011529878,0.051630645
3.836,0.00877706,0.047762765624999995,0.06700768,0.011529609,0.051629203124999995
3.84,0.008778166,0.047763066,0.067007781,0.011529408203124999,0.051629105
3.844,0.008777663,0.0477625,0.067004703,0.011528269,0.051627124999999996
3.848,0.008775115,0.047760855468749995,0.067001719,0.011526726562499999,0.051624375
3.852,0.00877307,0.047762027,0.06700557,0.01152686,0.051626121
3.856,0.00877545,0.047762465,0.067006242,0.011526928,0.051627328
3.86,0.008778938,0.047761391,0.067003758,0.01152676,0.051624343749999996
3.864,0.008778133,0.047760184,0.066999398,0.011526390624999999,0.05161975
3.868,0.008774042,0.047758543,0.066997859,0.011525083007812499,0.051619215
3.872,0.008775819,0.047756832031249995,0.06700007,0.011525419,0.051620555
3.876,0.008775651,0.047755828,0.067000711,0.011526189,0.051620386718749994
3.88,0.008775216,0.047756094,0.067000773,0.011525452148437499,0.051621156249999994
3.884,0.008774779,0.047756394531249996,0.066997695,0.011524077148437499,0.051618742
3.888,0.008774411,0.047755324,0.066994273,0.011522635742187499,0.051615594
3.892,0.008772902,0.047756562499999995,0.066998734,0.011522333984374999,0.051618074
3.896,0.008772165,0.047758609,0.067002422,0.011521395507812499,0.051618207031249995
3.9,0.008773137,0.047758843749999995,0.067002719,0.011518612,0.051616296874999995
3.904,0.008774444,0.047757938,0.066999336,0.011515227,0.051614621
3.908,0.008774143,0.047755559,0.066995445,0.01151308,0.051611738
3.912,0.008772299,0.047755758,0.066999234,0.011514186523437499,0.051612171874999994
3.916,0.008773371,0.047755792968749995,0.067000203,0.011516131835937499,0.051611167968749996
3.92,0.008774109,0.047754820312499995,0.066999164,0.011518546,0.051612003906249995
3.924,0.008772769,0.047753578124999994,0.066996148,0.011519183,0.051609890624999995
3.928,0.008770958,0.047752742187499995,0.066993336,0.011518277,0.051606539
3.932,0.008772198,0.047751902,0.066994813,0.011517405,0.051606406
3.936,0.008771695,0.047752172,0.066996484,0.011515695,0.051607878906249995
3.94,0.008771494,0.047752676,0.066997219,0.011514488281249999,0.051609488
3.944,0.008769952,0.04775234,0.066994711,0.011513416,0.051607878906249995
3.948,0.008768946,0.047750094,0.066990352,0.011512309570312499,0.051602484
3.952,0.008769113,0.047749859374999995,0.066993234,0.011512979492187499,0.051601813
3.956,0.008769516,0.047750395,0.06699575,0.011512812499999999,0.051603555
3.96,0.008772064,0.047750999999999995,0.066995516,0.011511739257812499,0.051604898
3.964,0.008772198,0.047750527343749995,0.066991656,0.011509627,0.051603055
3.968,0.008768912,0.047749625,0.066989211,0.011508286,0.051600438
3.972,0.008768745,0.047749992,0.066991492,0.011508219,0.051599633
3.976,0.008769449,0.047749891,0.066990883,0.011507146,0.051600438
3.98,0.008770421,0.047749457,0.066989711,0.011506878,0.051600641
3.984,0.008769349,0.047748820312499995,0.066986594,0.011506476,0.051598929687499996
3.988,0.008766666,0.047747445,0.066984984,0.011505503,0.051596246
3.992,0.008767806,0.047746437499999995,0.0669875,0.011505704,0.051596949
3.996,0.008768242,0.047745769531249996,0.066989109,0.011504967,0.051597753906249995
4,0.008769349,0.047745031,0.066988641,0.011503357421874999,0.051598863
4.004,0.008768477,0.047744527343749996,0.066985891,0.011502017,0.051597922
4.008,0.008766163,0.047743523,0.066983273,0.011500910156249999,0.051595574218749995
4.012,0.008766163,0.047743051,0.066986461,0.011500977,0.051596379
4.016,0.008769214,0.047742012,0.066986227,0.011499904,0.05159534
4.02,0.008767739,0.047741109,0.066986797,0.01149796,0.051594938
4.024,0.008765929,0.047740035,0.066985422,0.011496451,0.051594804687499995
4.028,0.008765124,0.047738727,0.066982641,0.011494305,0.051592258
4.032,0.008764587,0.047738156,0.066984586,0.011494573,0.051594504
4.036,0.008765358,0.047737957,0.066986094,0.011495076,0.051594504
4.04,0.008765693,0.047737722656249995,0.066986766,0.011495209960937499,0.051591387
4.044,0.008762811,0.047738492187499995,0.066985188,0.011494942,0.051589977
4.048,0.008762911,0.04773782,0.066981836,0.011492963867187499,0.051585184
4.052,0.00876147,0.04773732,0.06698468,0.011492227,0.051584379
4.056,0.008761737,0.047737086,0.06698525,0.011492460937499999,0.051584476562499995
4.06,0.008762944,0.047737285156249996,0.066985117,0.011491387695312499,0.051584613
4.064,0.00876442,0.047738023,0.066982172,0.011489711914062499,0.051581359
4.068,0.008763347,0.047734906,0.066978281,0.011487868,0.051577402343749995
4.072,0.008760933,0.04773323,0.066982875,0.011486694335937499,0.051580054687499995
4.076,0.00876214,0.047733429687499995,0.066984148,0.011487164,0.05157975
4.08,0.00876271,0.047733797,0.06698368,0.011488370117187499,0.051578141
4.084,0.008761536,0.04773427,0.066980492,0.011487700195312499,0.051574285
4.088,0.008759223,0.047734367187499994,0.066978281,0.011486694335937499,0.05157127
4.092,0.008760363,0.047733465,0.066980656,0.011487063,0.051570766
4.096,0.008761033,0.047731453,0.066980727,0.011487733,0.051570800781249995
4.1,0.008761302,0.047730613,0.066979922,0.011489041,0.051571605
4.104,0.008760195,0.047730445312499994,0.066977609,0.011490147,0.051572574
4.108,0.008759056,0.047729371,0.066974727,0.011487801,0.051568051
4.112,0.008759793,0.047729136718749995,0.066976969,0.011486058,0.051567277343749995
4.116,0.008760899,0.047730914,0.066978852,0.011485319335937499,0.051566507812499995
4.12,0.008760229,0.047732289062499995,0.066979148,0.011484079,0.051564129
4.124,0.008760363,0.047731855,0.066975898,0.011482671,0.051560574218749995
4.128,0.008758016,0.047730848,0.066973219,0.011481263,0.051557891
4.132,0.008759458,0.047729507812499995,0.066974891,0.011481798828124999,0.051557488
4.136,0.008757178,0.047730175781249995,0.066978344,0.011483274,0.051560035156249996
4.14,0.008759424,0.047731285,0.066978648,0.011483677,0.051561109
4.144,0.008758955,0.047730445312499994,0.066974461,0.011483643554687499,0.051559367187499996
4.148,0.008757949,0.047729773,0.066970266,0.011484549,0.051556414
4.152,0.00875872,0.047729273,0.066972375,0.011484716,0.051556785
4.156,0.008758184,0.047728434,0.066973453,0.011484313476562499,0.05155675
4.16,0.008758754,0.047727527,0.066972578,0.011484582,0.051556047
4.164,0.008758888,0.047726488,0.066970164,0.011485621093749999,0.051554269531249995
4.168,0.008756708,0.047724074218749996,0.066968828,0.011485688476562499,0.051552359374999995
4.172,0.00875701,0.047723574218749995,0.066971773,0.011485588,0.051552594
4.176,0.008756172,0.047725016,0.066973891,0.011486359,0.051554167968749995
4.18,0.008759323,0.047725988,0.066972414,0.011486561,0.051553031
4.184,0.008757814,0.047725352,0.066969594,0.011486828,0.051550949218749996
4.188,0.008755702,0.047723406249999996,0.066967922,0.011485889648437499,0.051550313
4.192,0.008756775,0.047722836,0.066970469,0.011485354,0.051551188
4.196,0.008756775,0.047723539,0.066972281,0.011484984,0.051551988281249995
4.2,0.008757613,0.04772441,0.066972945,0.011483945312499999,0.051553266
4.204,0.008758418,0.047724309,0.066969727,0.011483342,0.051550414
4.208,0.008754998,0.047723035156249996,0.066966844,0.011482537,0.051547934
4.212,0.008754127,0.047723504,0.066970672,0.011483307617187499,0.051549879
4.216,0.008756909,0.047724109,0.066971539,0.011483677,0.051551386718749995
4.22,0.008757681,0.047724914,0.066970938,0.011483342,0.051550246093749995
4.224,0.008756574,0.047725046874999996,0.066969195,0.011481866210937499,0.051548773
4.228,0.00875473,0.047723504,0.066965508,0.011479821289062499,0.051545051
4.232,0.008752719,0.047723136718749996,0.066968523,0.011480827,0.051546492
4.236,0.008755032,0.04772441,0.066969563,0.011482101,0.051546828
4.24,0.00875577,0.047724914,0.066969258,0.011482704,0.051545886718749996
4.244,0.008754529,0.047723906249999996,0.066967352,0.011482067382812499,0.051544816
4.248,0.008752282,0.047722133,0.066964867,0.011481766,0.051543105468749996
4.252,0.008753557,0.047721527,0.06696618,0.011483006,0.051542266
4.256,0.008753959,0.047721492,0.066967352,0.011484046,0.051541832
4.26,0.00875473,0.047722133,0.06696725,0.011484883789062499,0.051541563
4.264,0.008753858,0.047722297,0.066964805,0.011484481,0.051541093749999996
4.268,0.008752853,0.047720891,0.066960477,0.011483543,0.051535563
4.272,0.008751411,0.047719148,0.066962391,0.011483911,0.051533785
4.276,0.008749769,0.047719785,0.066965102,0.011485555,0.051536199218749995
4.28,0.008750908,0.047720050781249995,0.066965742,0.011486023,0.051537438
4.284,0.008750908,0.047719684,0.06696343,0.011484984,0.051536097656249995
4.288,0.008748394,0.047717035,0.066960914,0.011483342,0.051534656
4.292,0.008749567,0.047715793,0.06696443,0.011482973,0.0515365
4.296,0.008753322,0.047715191406249996,0.066963961,0.011481464,0.051535359
4.3,0.008752719,0.047715594,0.066963227,0.011479922,0.051534621
4.304,0.008751177,0.047715460937499996,0.066962289,0.011478815429687499,0.051533484
4.308,0.008749064,0.047713684,0.066960172,0.011477475,0.051530902
4.312,0.008748192,0.047712910156249996,0.066962453,0.011477105,0.051532746
4.316,0.008748763,0.047713613,0.066963289,0.011477943,0.051534289062499995
4.32,0.008750305,0.047713414,0.066963695,0.011478949,0.051535058593749995
4.324,0.008750539,0.047712039062499996,0.066961883,0.011479117187499999,0.051534187499999995
4.328,0.008748562,0.047710328,0.066958867,0.011479049804687499,0.051531738281249996
4.332,0.008750204,0.047710296874999995,0.06696118,0.011479318359374999,0.051532207
4.336,0.008751646,0.047710898437499996,0.066961922,0.011479184,0.051532980468749996
4.34,0.008752216,0.047710898437499996,0.066962055,0.011479017,0.051533852
4.344,0.008752584,0.04771043,0.066959703,0.011478346,0.051529695
4.348,0.008749734,0.04770825,0.066956453,0.011477943,0.051527281
4.352,0.008748796,0.047707379,0.066960375,0.011478781,0.051529629
4.356,0.008750808,0.047708352,0.066962117,0.011479218,0.051531605
4.36,0.008750506,0.04770909,0.06696232,0.011479017,0.051530398
4.364,0.008749467,0.047709324218749995,0.066960273,0.011479352,0.051527046874999996
4.368,0.008748695,0.047708453,0.066956086,0.011478446,0.051522688
4.372,0.008747622,0.047708922,0.066959938,0.011478647,0.051524496
4.376,0.008749567,0.047708586,0.066959938,0.011479955,0.051525035156249996
4.38,0.008749433,0.047708218749999996,0.066959672,0.011480525,0.051525035156249996
4.384,0.008749835,0.047707144531249995,0.066956789,0.011480625976562499,0.051522050781249995
4.388,0.008747556,0.047704964843749996,0.066953836,0.011479385,0.05151816
4.392,0.008748226,0.04770473,0.066956289,0.011480055664062499,0.05151843
4.396,0.008748997,0.047704898,0.066957023,0.011481934,0.051518796874999995
4.4,0.008749299,0.047704863281249996,0.066956953,0.011483509,0.051519805
4.404,0.008749266,0.047704766,0.066953773,0.011483509,0.051518563
4.408,0.008746952,0.047703559,0.066951492,0.011482939453124999,0.051516820312499996
4.412,0.008747991,0.047704125,0.066954172,0.011483810546874999,0.051516886718749995
4.416,0.008749064,0.047705602,0.066956117,0.011483810546874999,0.051517824
4.42,0.008748494,0.047705973,0.066957422,0.01148418,0.051518027343749995
4.424,0.008746415,0.047706473,0.066956953,0.011485118164062499,0.051516352
4.428,0.008743699,0.047706039,0.066954914,0.011484917,0.051514641
4.432,0.008743767,0.047706976562499996,0.066959133,0.011484783,0.051516785156249995
4.436,0.008747388,0.047707816,0.066959875,0.011484683,0.05151816
4.44,0.008750171,0.047707379,0.066958031,0.011484146484374999,0.051517457
4.444,0.008749701,0.047706742,0.066955008,0.01148418,0.051515043
4.448,0.008746717,0.047705199,0.066952062,0.011483810546874999,0.051511824218749995
4.452,0.008749198,0.047703523,0.066952664,0.011484414,0.051511925781249995
4.456,0.008749165,0.047702551,0.066954945,0.011485253,0.051513469
4.46,0.008749064,0.047703222656249995,0.066955414,0.011485822265624999,0.051514203
4.464,0.008748997,0.047703289,0.066953437,0.011485386718749999,0.051512125
4.468,0.008745879,0.047702047,0.066950656,0.011484515,0.051509746093749996
4.472,0.00874665,0.047701176,0.066952266,0.011483576,0.051510886718749996
4.476,0.008745879,0.047701949,0.066953734,0.011484481,0.051511621093749994
4.48,0.008746382,0.047702281,0.066953875,0.011484649414062499,0.051511523
4.484,0.008746885,0.047701512,0.066951594,0.011484112304687499,0.05151075
4.488,0.008745041,0.047700003906249996,0.066948305,0.011481967,0.051508003906249995
4.492,0.00874484,0.047699902343749996,0.066950484,0.011480928,0.051507063
4.496,0.008745208,0.047701547,0.066952734,0.011481128906249999,0.051507531249999995
4.5,0.008747723,0.047702449,0.066952227,0.011482168,0.051507902343749995
4.504,0.008747656,0.047702449,0.066950586,0.011482872070312499,0.051507164
4.508,0.008746717,0.047700875,0.066946766,0.011481531,0.051503878906249995
4.512,0.008747153,0.047700305,0.06694918,0.011481631835937499,0.051504749999999995
4.516,0.008750674,0.047701547,0.066950688,0.011482402,0.051504918
4.52,0.008750808,0.047702516,0.066951492,0.011481698,0.051506324218749996
4.524,0.008751713,0.047700473,0.066948039,0.011479821289062499,0.051504816
4.528,0.008750237,0.047697085937499994,0.066945086,0.011477475,0.051500895
4.532,0.008750003,0.047696719,0.06694757,0.011476938,0.051500121
4.536,0.008750606,0.047696984,0.066949078,0.011477139,0.051501297
4.54,0.008750908,0.047697855468749994,0.066948641,0.011476469,0.051503777343749994
4.544,0.008751042,0.047698895,0.066946063,0.011475094,0.051502133
4.548,0.008748494,0.047697254,0.066943109,0.011473786,0.051499585937499995
4.552,0.008748763,0.04769732,0.066946563,0.011473919921874999,0.051499988
4.556,0.00874997,0.047698426,0.066948609,0.011474691,0.051499855468749994
4.56,0.008750473,0.047698828124999995,0.066949078,0.011474021,0.051500191
4.564,0.008750405,0.047697890624999996,0.066947906,0.011472345,0.051499855468749994
4.568,0.008748796,0.047695543,0.066944547,0.011470869,0.051497172
4.572,0.008748159,0.047694906249999995,0.066946461,0.011471339,0.05149734
4.576,0.008751479,0.047694234,0.06694807,0.011472848,0.051498211
4.58,0.00875245,0.047694305,0.066947398,0.011473652,0.051497875
4.584,0.008749835,0.047695007812499995,0.066946297,0.011474356,0.05149791
4.588,0.008748059,0.047694336,0.066942875,0.011475262,0.051495832
4.592,0.008748527,0.047693801,0.066944953,0.011476535,0.051495394531249995
4.596,0.008749936,0.047693801,0.066945422,0.011477206,0.051495531
4.6,0.008750405,0.047693332,0.066944516,0.011476736328124999,0.051495898
4.604,0.008749299,0.047692828124999996,0.066942508,0.011476133,0.051495094
4.608,0.008747086,0.047690078,0.066938414,0.011475094,0.051491809
4.612,0.00874665,0.047688804687499996,0.066939688,0.01147563,0.051490871093749994
4.616,0.008746616,0.047689543,0.06694093,0.011477005,0.051492109
4.62,0.008746985,0.047689441,0.066941836,0.011477876,0.05149459
4.624,0.008747991,0.047690348,0.066941164,0.011477742187499999,0.051492175781249996
4.628,0.008745242,0.047690211,0.066938016,0.011477675,0.051489262
4.632,0.008746281,0.04769048,0.066939391,0.011478212,0.051488992
4.636,0.008748461,0.047690816406249996,0.066940094,0.011479049804687499,0.051489059
4.64,0.008750137,0.047690582,0.06693932,0.011479419,0.051489426
4.644,0.008746784,0.047690882812499995,0.06693882,0.011480156,0.051490801
4.648,0.008744639,0.047690313,0.066937406,0.011480290039062499,0.051489562499999995
4.652,0.008745778,0.047690414,0.066939727,0.011481363281249999,0.051491105
4.656,0.008747823,0.047690949,0.066941133,0.011483207,0.051491406249999996
4.66,0.008748494,0.047689711,0.066940828,0.011484046,0.051490734
4.664,0.00874608,0.047689242187499994,0.066940828,0.011485319335937499,0.051491809
4.668,0.008744604,0.047688738,0.066939016,0.011486225,0.051488957
4.672,0.008744571,0.047689441,0.066941633,0.011488002,0.051488621
4.676,0.008745477,0.047689945312499996,0.066943812,0.011489711914062499,0.051489227
4.68,0.008745007,0.047689574218749996,0.066944789,0.011490919,0.05148993
4.684,0.008744471,0.047689309,0.066943781,0.011490952148437499,0.051490398437499994
4.688,0.008743331,0.047687633,0.066940695,0.011489644531249999,0.051486140624999996
4.692,0.008742225,0.047687531,0.066943273,0.011489443359374999,0.051486879
4.696,0.008741085,0.047689039,0.066946461,0.011489711914062499,0.051489863
4.7,0.008744035,0.047690414,0.066945289,0.01149112,0.05148916
4.704,0.008744001,0.047689645,0.066942977,0.011492059,0.051486777
4.708,0.008742124,0.047687465,0.066939188,0.011492863,0.051482589843749996
4.712,0.008740079,0.047686156,0.066940625,0.011495177,0.051482453
4.716,0.008740615,0.04768666,0.066942539,0.011497256,0.051483089843749996
4.72,0.008742761,0.047686589843749995,0.066940828,0.011496987,0.05148202
4.724,0.008743062,0.04768525,0.066937242,0.011495914,0.051480074
4.728,0.008740347,0.047683640624999996,0.066934055,0.011494540039062499,0.051477793
4.732,0.008739609,0.047683039062499995,0.066936102,0.011495144,0.05147709
4.736,0.008739408,0.047683472656249996,0.066938211,0.011496283203124999,0.051477895
4.74,0.008739408,0.047683777,0.066938352,0.011496517578124999,0.051478898
4.744,0.008738805,0.047683305,0.066936406,0.011497825,0.051478566406249995
4.748,0.008736391,0.047680156,0.066933187,0.011498396,0.051475582031249995
4.752,0.008737296,0.047678711,0.066936336,0.011498898,0.051476249999999994
4.756,0.008739106,0.047678813,0.066938383,0.011499333984374999,0.051477425781249996
4.76,0.008740615,0.047678847656249995,0.066937508,0.011498898,0.051478664
4.764,0.008738671,0.047679550781249996,0.066935867,0.011499636,0.051479269531249996
4.768,0.008736122,0.047679215,0.06693332,0.011498999,0.051476082031249995
4.772,0.008737095,0.047680156,0.066934797,0.011499032226562499,0.051474809
4.776,0.008737296,0.047680926,0.066935797,0.011500239,0.051475379
4.78,0.008737497,0.047680422,0.0669355,0.011500842773437499,0.051475480468749994
4.784,0.008737329,0.047679785156249994,0.066934828,0.011500943,0.051475210937499995
4.788,0.008735317,0.047678379,0.066931344,0.011500172,0.051472766
4.792,0.008735754,0.047678578124999996,0.066932984,0.011501178,0.051472429687499995
4.796,0.008736424,0.047678813,0.0669355,0.011502585937499999,0.051474809
4.8,0.008737162,0.04767925,0.066936031,0.011503022,0.051474710937499994
4.804,0.008737564,0.04767925,0.066933289,0.011502017,0.051471625
4.808,0.00873572,0.047678043,0.066929797,0.011501077,0.051468238281249995
4.812,0.008736592,0.047678176,0.06693107,0.011501647,0.051467668
4.816,0.008738067,0.047678512,0.066932813,0.011502083007812499,0.051469848
4.82,0.008739375,0.047678578124999996,0.066932984,0.011502251,0.051467938
4.824,0.008739106,0.047678043,0.066930203,0.01150252,0.051466124999999995
4.828,0.008736056,0.04767707,0.066927617,0.011502721,0.051463343749999994
4.832,0.008734547,0.047677137,0.066931508,0.011503860351562499,0.051464316406249995
4.836,0.008735553,0.047678074,0.06693382,0.011506006,0.051466996093749995
4.84,0.008736592,0.047678242,0.066933719,0.011507112304687499,0.05146891
4.844,0.008735553,0.047677808593749996,0.066932383,0.011507816,0.051469883
4.848,0.008733843,0.047675863281249994,0.066928961,0.011507916992187499,0.051466695
4.852,0.008732233,0.047675796874999996,0.066932211,0.011508990234374999,0.051467871
4.856,0.008730959,0.047677406,0.066935664,0.011510499023437499,0.051470383
4.86,0.008728143,0.047678949218749996,0.066938586,0.011510934570312499,0.051473602
4.864,0.00872774,0.047679684,0.066938016,0.011512074,0.051476285156249996
4.868,0.008727338,0.047678242,0.06693332,0.011512074,0.051473836
4.872,0.008727271,0.047677707031249995,0.066934359,0.011513449,0.051473535
4.876,0.008727674,0.047678410156249997,0.066936172,0.011514724,0.051474874999999996
4.88,0.008729183,0.047678211,0.06693493,0.011516098,0.051474309
4.884,0.008727036,0.047676632812499994,0.066932852,0.011516434,0.051472395
4.888,0.008723583,0.047674824218749995,0.066931375,0.011516131835937499,0.051470183593749996
4.892,0.008723349,0.047673816,0.066933852,0.011516601,0.051469344
4.896,0.008724388,0.047674688,0.066935461,0.011517204,0.051469613
4.9,0.008723449,0.047675492187499995,0.066935563,0.011517171,0.0514675
4.904,0.008721504,0.047675563,0.066934992,0.011517372,0.051467535
4.908,0.00872023,0.047674688,0.066931773,0.011517606,0.051464082
4.912,0.008722242,0.047672844,0.066931305,0.011516902,0.051462672
4.916,0.008722007,0.047672344,0.066932914,0.011516601,0.051463711
4.92,0.008721504,0.047672578,0.066934125,0.011517304687499999,0.05146559
4.924,0.00872184,0.047673281,0.066932883,0.011518880859374999,0.05146418
4.928,0.008720063,0.047672039,0.066929328,0.011518813476562499,0.051460629
4.932,0.00872023,0.047671671874999995,0.066931773,0.011517606,0.051459957031249996
4.936,0.008722409,0.047671973,0.066931977,0.011516902,0.051457843749999996
4.94,0.008718018,0.047671671874999995,0.066932281,0.011516499999999999,0.051458949
4.944,0.008719258,0.047670632812499995,0.066930305,0.011515595,0.051457543
4.948,0.008714329,0.047668152,0.066927922,0.011514287,0.05145543
4.952,0.008713826,0.047665871,0.066929664,0.011513852,0.051455195
4.956,0.008715101,0.047665671874999996,0.066931039,0.011513683593749999,0.051455867
4.96,0.008716509,0.047665468749999995,0.066930133,0.011512142,0.051456703124999996
4.964,0.008715302,0.047666406,0.066929297,0.011509962,0.051456871093749995
4.968,0.008712586,0.047666574,0.066927117,0.011507313,0.051453418
4.972,0.008712083,0.047665938,0.066929398,0.01150604,0.051452781249999996
4.976,0.008712418,0.047665570312499995,0.066930906,0.011506308,0.051452414
4.98,0.008713189,0.047666074,0.066930906,0.011504866210937499,0.051453555
4.984,0.008715771,0.047665468749999995,0.066926883,0.011502318,0.051448054687499994
4.988,0.008715234,0.047662922,0.066921516,0.011499099609374999,0.05144232
4.992,0.008715436,0.047661211,0.066921648,0.011497791992187499,0.051440848
4.996,0.008714698,0.047660473,0.066924102,0.011497759,0.051442890624999994
5,0.008715737,0.047659703,0.066924805,0.011495445,0.051444398
5.004,0.008715201,0.047659301,0.066923094,0.011492762695312499,0.051442355
5.008,0.008712687,0.047657824,0.066918969,0.011489678,0.051437863281249996
5.012,0.008709636,0.047658094,0.066922453,0.011489343,0.051439035
5.016,0.008712184,0.047658363,0.06692393,0.011489778,0.051440210937499994
5.02,0.008712653,0.047658262,0.066922555,0.011489275,0.051438902343749995
5.024,0.008711748,0.047658195,0.066920141,0.011488974,0.051437324
5.028,0.008709502,0.047656214843749996,0.066915211,0.011489711914062499,0.051434675781249994
5.032,0.008708597,0.047655277,0.066917563,0.011490147,0.051435683593749996
5.036,0.008709535,0.047655949,0.06692075,0.011490214843749999,0.051437293
5.04,0.008711278,0.04765625,0.066920609,0.011490952148437499,0.05143659
5.044,0.008710406,0.047656953,0.066918297,0.011491254,0.05143491
5.048,0.008707322,0.047656585937499996,0.066914977,0.011491623,0.051432094
5.052,0.008707557,0.047656352,0.066916789,0.011492695312499999,0.051432633
5.056,0.008708496,0.047656585937499996,0.06691857,0.011492963867187499,0.051433
5.06,0.008709468,0.047656684,0.066918195,0.011492025390624999,0.051432566
5.064,0.008709334,0.047656148,0.066916656,0.011491354,0.051431761718749996
5.068,0.008707993,0.047654977,0.066913773,0.011489511,0.051430184
5.072,0.00870806,0.047653601562499995,0.066915547,0.011488605,0.051430585937499995
5.076,0.008710909,0.047653668,0.066916586,0.011488672,0.051430453
5.08,0.008712016,0.047653566,0.066914406,0.011488974,0.051428207
5.084,0.008709468,0.047653398,0.066913703,0.011489041,0.051428777343749996
5.088,0.008707222,0.047652191406249995,0.066910859,0.01148827,0.051427703124999995
5.092,0.008708496,0.04765075,0.066911523,0.011488370117187499,0.051426965
5.096,0.008710239,0.047649879,0.066912031,0.011489745,0.051426765624999995
5.1,0.008710607,0.047649308593749995,0.066911492,0.011492059,0.051425523437499995
5.104,0.00871111,0.047648906,0.066909383,0.011493902,0.051423578
5.108,0.008709334,0.047646793,0.066906227,0.011494405,0.051420328
5.112,0.008708429,0.047645184,0.066909078,0.011495076,0.051421164
5.116,0.008709837,0.047645488281249995,0.066910688,0.011495646,0.051421566
5.12,0.008709603,0.047646324,0.066911094,0.011496014648437499,0.051420965
5.124,0.008710843,0.04764693,0.066908977,0.011497256,0.051419152343749996
5.128,0.008708999,0.047646023,0.066905656,0.01149692,0.051417242
5.132,0.00870816,0.047644852,0.066908641,0.011495612,0.051418718749999995
5.136,0.008707557,0.047645015624999995,0.066910953,0.011494841796874999,0.051419421874999996
5.14,0.008707423,0.047645184,0.066909852,0.011494908,0.051417543
5.144,0.008705243,0.047645453,0.066908508,0.011495579,0.051415835937499994
5.148,0.008703399,0.047644449218749996,0.066904656,0.011495981,0.051412312499999994
5.152,0.008704539,0.047643543,0.066905523,0.011496215820312499,0.051410503906249995
5.156,0.00870692,0.047643676,0.066907031,0.011496417,0.05141
5.16,0.008705881,0.047643711,0.066907602,0.011496686,0.051411609
5.164,0.008704539,0.047644113,0.066906594,0.011496718749999999,0.051411777
5.168,0.008701823,0.047642503906249994,0.066902539,0.011495545898437499,0.051409496
5.172,0.008699912,0.047641867,0.066904383,0.011495244,0.051410102
5.176,0.00870132,0.047643273437499994,0.066905992,0.011495747,0.051410871
5.18,0.00870397,0.047644113,0.066904352,0.011495008789062499,0.051409734374999995
5.184,0.008704271,0.047643879,0.066903281,0.011494942,0.051408961
5.188,0.008701488,0.047641832,0.066899188,0.011495209960937499,0.051405977
5.192,0.008699275,0.04764123,0.066902172,0.011495914,0.051407219
5.196,0.008701891,0.047641699,0.066904148,0.011496115,0.051407453124999995
5.2,0.008702059,0.047641964843749995,0.066904555,0.011495244,0.051406144531249996
5.204,0.008701187,0.047642,0.066903078,0.011494573,0.051406414062499996
5.208,0.008700449,0.047640828,0.066898852,0.011493434,0.05140373
5.212,0.008700449,0.047640191,0.066901133,0.011491890624999999,0.051404570312499995
5.216,0.008701958,0.047640289,0.066903445,0.011490852,0.05140668
5.22,0.008702628,0.047640457,0.066904117,0.011490013671874999,0.051407688
5.224,0.008703366,0.047639586,0.066901906,0.011489678,0.051405171874999996
5.228,0.008699544,0.047637676,0.066899023,0.011488135742187499,0.051400949
5.232,0.008699008,0.047637574,0.066899758,0.011487532,0.051399371
5.236,0.008699275,0.047637777,0.066901438,0.011487733,0.051401082031249996
5.24,0.008698538,0.047637777,0.066902273,0.011488103,0.051401855
5.244,0.008697499,0.047637574,0.06690157,0.011489711914062499,0.051401285
5.248,0.008695521,0.04763657,0.066899289,0.011490281,0.051400480468749996
5.252,0.008696057,0.047636637,0.066901766,0.01149055,0.051400512
5.256,0.008697097,0.047637508,0.066903375,0.011491857,0.051401785
5.26,0.008696526,0.047638512,0.066903617,0.011494506,0.051402121093749996
5.264,0.008696594,0.04763818,0.066903141,0.011495981,0.051401383
5.268,0.008693979,0.047636367,0.066899828,0.011497558,0.051399039
5.272,0.008695755,0.047634656,0.066898617,0.011499769531249999,0.051397262
5.276,0.008695319,0.047634390624999995,0.066900531,0.011501815,0.051398968749999996
5.28,0.008694146,0.047634793,0.066901367,0.011503257,0.051399977
5.284,0.008695252,0.047635395,0.066900633,0.011503257,0.051399742
5.288,0.008694079,0.047635563,0.066897039,0.011501044,0.051396824
5.292,0.008693643,0.047636132812499996,0.066899086,0.011499468,0.051396691
5.296,0.008695353,0.047636973,0.066900766,0.011498596679687499,0.051397695
5.3,0.008695051,0.047636,0.066900094,0.011498161132812499,0.051397797
5.304,0.008694515,0.047634625,0.066898688,0.011497825,0.051396789062499997
5.308,0.008692134,0.047633183593749996,0.066895195,0.01149692,0.051394813
5.312,0.008692067,0.047632074,0.066896,0.011495712890624999,0.051394309
5.316,0.008691464,0.047631574,0.066897914,0.011495479,0.051395082
5.32,0.00868915,0.047632042968749996,0.066900695,0.011495712890624999,0.051397863
5.324,0.00868982,0.047632878906249995,0.066900492,0.011494808,0.051397965
5.328,0.008686435,0.047632210937499996,0.066897273,0.011492896,0.051394445312499995
5.332,0.008686703,0.047630332,0.066897945,0.011492963867187499,0.051395617
5.336,0.00868915,0.047630902343749996,0.066899625,0.011493132,0.051396355468749995
5.34,0.008689317,0.047632210937499996,0.066900258,0.011491053,0.051396555
5.344,0.008688849,0.047632914,0.066899555,0.011487935,0.051396926
5.348,0.008686804,0.04763191,0.066896234,0.011485822265624999,0.051394813
5.352,0.008686301,0.047631773,0.06689875,0.011485018,0.051395348
5.356,0.008686736,0.047632578,0.066902438,0.011486259,0.051397429687499996
5.36,0.008685194,0.047632914,0.066903047,0.011488002,0.051399809
5.364,0.008685261,0.047633249999999995,0.066900961,0.0114876,0.051399539
5.368,0.008684255,0.047631539,0.066896203,0.011485856,0.051396488
5.372,0.008684657,0.047629797,0.066897375,0.011484917,0.05139575
5.376,0.008686568,0.047630132812499996,0.066899156,0.011484079,0.051395516
5.38,0.008686804,0.047629426,0.066898516,0.011483241,0.051395617
5.384,0.008687474,0.047628355,0.066896,0.011483207,0.051394613281249994
5.388,0.008685295,0.04762641,0.06689332,0.011481698,0.05139193
5.392,0.008684154,0.047625234,0.066895164,0.011479955,0.051390285
5.396,0.008684322,0.047624699,0.066897508,0.011480156,0.051390117
5.4,0.008686502,0.047623894531249995,0.06689657,0.011479854,0.051390219
5.404,0.008685764,0.047623594,0.066894961,0.011479854,0.051388375
5.408,0.008682512,0.047623223,0.066892414,0.011479988281249999,0.051385625
5.412,0.00868335,0.047622891,0.066893422,0.011480458,0.051384886718749995
5.416,0.008684021,0.047622891,0.06689543,0.011482804687499999,0.051385960937499996
5.42,0.008684691,0.047622184,0.066894961,0.011484683,0.051386766
5.424,0.008685898,0.047621984374999995,0.066893453,0.011484348,0.051386027343749995
5.428,0.008682746,0.047620508,0.06689007,0.011483810546874999,0.051383883
5.432,0.008680835,0.047620039,0.066891547,0.011485052,0.051383379
5.436,0.008681036,0.047620711,0.066894391,0.011486862,0.051385996
5.44,0.008682545,0.047620543,0.066894328,0.011487801,0.051386969
5.444,0.008683316,0.047620508,0.066893789,0.011486594,0.051386898437499995
5.448,0.008682109,0.047620105,0.066890906,0.011485354,0.051385089843749995
5.452,0.008682009,0.047619336,0.066891211,0.011484716,0.051384218749999995
5.456,0.008682344,0.047619738,0.066893484,0.011485253,0.051385559
5.46,0.008683183,0.047620609,0.066893922,0.011484313476562499,0.051385391
5.464,0.008683048,0.04762118,0.066892445,0.01148418,0.051384555
5.468,0.008679662,0.047619469,0.066889133,0.01148418,0.051381367
5.472,0.008681674,0.047618195,0.066889227,0.011483342,0.051380496
5.476,0.008682512,0.047618129,0.066890906,0.011482671,0.05137966
5.48,0.008681808,0.047618262,0.066890641,0.011481967,0.051380195312499995
5.484,0.008681237,0.047617894531249996,0.066889602,0.011480625976562499,0.051379824218749995
5.488,0.008679494,0.047616016,0.066886281,0.011479452,0.051376844
5.492,0.008678723,0.047615679687499995,0.066888125,0.011479251,0.051376844
5.496,0.00867879,0.047615246,0.066891141,0.011481162,0.05137959
5.5,0.008679964,0.047614105,0.066890438,0.011482369140624999,0.051379523
5.504,0.008680231,0.047615043,0.066889133,0.011481798828124999,0.051377578
5.508,0.008679092,0.047615179687499995,0.066885172,0.011481396,0.051372551
5.512,0.008677985,0.04761434,0.066886883,0.011481295898437499,0.051371613
5.516,0.008678421,0.047614539062499996,0.066890133,0.011482704,0.051373656
5.52,0.008678086,0.047614875,0.066889367,0.011484012,0.051374996
5.524,0.008677919,0.047615109,0.066888125,0.011485085,0.051375066406249996
5.528,0.008676577,0.047613367,0.066884102,0.011485253,0.051372887
5.532,0.008675873,0.047611254,0.066883766,0.011486325,0.051373824218749996
5.536,0.00867708,0.047610922,0.066885273,0.011488103,0.051374227
5.54,0.00867708,0.047610922,0.066885406,0.011488169,0.051373289
5.544,0.008676645,0.047611055,0.066884102,0.011487164,0.051372484
5.548,0.008675103,0.047609679687499996,0.06688132,0.011485454101562499,0.051370203
5.552,0.008676778,0.047608137,0.06688125,0.011484414,0.05136759
5.556,0.00867641,0.04760834,0.066882656,0.011484348,0.051366785
5.56,0.0086746,0.047609781,0.066883664,0.011485186,0.051368895
5.564,0.008674432,0.047610184,0.066883195,0.011484851,0.051370539
5.568,0.008672521,0.04760941,0.066879844,0.011483777,0.051369129
5.572,0.008672554,0.047609242,0.06688118,0.011483979,0.051368761718749996
5.576,0.0086746,0.047610352,0.066884602,0.011484582,0.051370738281249995
5.58,0.008676477,0.047610683593749994,0.066884437,0.011485118164062499,0.051371644531249996
5.584,0.008676745,0.047610484,0.066882125,0.011486426,0.051371176
5.588,0.008674398,0.047609547,0.066877563,0.011486694335937499,0.051366984
5.592,0.008673526,0.047608406,0.066879242,0.011486526,0.051366516
5.596,0.008674867,0.047608508,0.066882758,0.011485521,0.051367187499999994
5.6,0.008674767,0.047607434,0.06688293,0.011483979,0.051368726562499994
5.604,0.008675002,0.047606563,0.066881516,0.011482905,0.051369968749999995
5.608,0.00867356,0.047604984,0.066876961,0.01148247,0.051367254
5.612,0.00867289,0.047603777,0.066877227,0.011483342,0.051365777343749995
5.616,0.008673157,0.047604012,0.066879977,0.011485085,0.051366012
5.62,0.008672789,0.047604648,0.06688075,0.011485789,0.051366984
5.624,0.008673124,0.047605957,0.066879438,0.011486493,0.051366684
5.628,0.008672688,0.047604316,0.066874648,0.011485957031249999,0.05136323
5.632,0.008672521,0.047601934,0.066874375,0.011485319335937499,0.051360613281249995
5.636,0.00867128,0.047600492187499996,0.066877461,0.011486459960937499,0.051361789062499996
5.64,0.008669369,0.047600426,0.066878938,0.011488002,0.051363363
5.644,0.008668497,0.047601297,0.066879672,0.011489711914062499,0.051365675781249995
5.648,0.008666754,0.047601195,0.066877492,0.011490181,0.051363898
5.652,0.008666687,0.04760123,0.066878906,0.011491186523437499,0.051361922
5.656,0.008667056,0.047602402343749996,0.06688182,0.011492963867187499,0.051363164
5.66,0.008668095,0.047601969,0.066880344,0.011495144,0.051362726562499995
5.664,0.008668631,0.047601297,0.066878469,0.011495646,0.051362426
5.668,0.008666251,0.047600492187499996,0.066875883,0.011494171,0.05136152
5.672,0.008666184,0.047599789062499995,0.066876555,0.011494003,0.05136075
5.676,0.008667927,0.047599656,0.0668785,0.011495144,0.051360582
5.68,0.008668027,0.047598917968749994,0.066877398,0.011496384,0.051359977
5.684,0.008667826,0.047598113,0.066876188,0.01149692,0.051358469
5.688,0.008665479,0.047596839843749995,0.066873039,0.011495076,0.051355887
5.692,0.008665849,0.047596938,0.066873977,0.011492796,0.051355453
5.696,0.008670476,0.047596570312499996,0.066873609,0.011492595,0.051355215
5.7,0.008668933,0.047595063,0.06687357,0.011492460937499999,0.05135666
5.704,0.008668766,0.047594121,0.0668725,0.011492863,0.051356121
5.708,0.008666083,0.047593316406249996,0.066869352,0.011492796,0.051352566406249994
5.712,0.008665077,0.047592816406249995,0.066871195,0.011493031249999999,0.051351562499999996
5.716,0.008665413,0.047593789062499996,0.066873469,0.011493534179687499,0.051353406
5.72,0.008666251,0.047593855468749995,0.06687357,0.011493366,0.051354343749999996
5.724,0.008666888,0.047593687499999995,0.066872703,0.011492863,0.051354511718749996
5.728,0.00866491,0.047593285,0.066869383,0.011491522460937499,0.051351664062499996
5.732,0.008664239,0.047593417968749996,0.066870016,0.011489846,0.051350320312499996
5.736,0.008663904,0.047594191,0.066873039,0.011489846,0.051351527343749995
5.74,0.00866434,0.047595027,0.066873172,0.011490381835937499,0.051351863
5.744,0.008664307,0.047595465,0.06687243,0.011490952148437499,0.051352801
5.748,0.008663669,0.04759409,0.066867938,0.011490516601562499,0.051350254
5.752,0.008664642,0.047593051,0.066867773,0.011490047,0.051348176
5.756,0.008665681,0.047593754,0.066870586,0.011490381835937499,0.051348813
5.76,0.008664239,0.047594895,0.066871391,0.011490381835937499,0.051349886718749994
5.764,0.00866662,0.047594828124999995,0.066869547,0.011490381835937499,0.051349852
5.768,0.008665245,0.047593184,0.066865992,0.011489678,0.051347574
5.772,0.008662864,0.04759268,0.066868844,0.011490884765624999,0.051348679687499996
5.776,0.008664843,0.04759325,0.06687243,0.011493265624999999,0.051350589843749996
5.78,0.008667592,0.047593051,0.066870523,0.011493466796874999,0.051349652343749996
5.784,0.008668396,0.047592546874999996,0.066867906,0.011492762695312499,0.051347473
5.788,0.00866491,0.04759107,0.06686425,0.011491890624999999,0.051345527343749996
5.792,0.008664508,0.047589863,0.066865258,0.011492126,0.051344789
5.796,0.008665446,0.047590332031249995,0.066867234,0.011493869,0.051346464843749995
5.8,0.008665212,0.04759107,0.066867406,0.011495646,0.051347640624999996
5.804,0.008666251,0.047591574218749995,0.066866867,0.011496552,0.051347238
5.808,0.008665514,0.04758943,0.06686325,0.011496384,0.051343816
5.812,0.008665178,0.047587719,0.066863109,0.011496753,0.051340867
5.816,0.008665044,0.047588792968749995,0.066865594,0.011497222,0.051341137
5.82,0.008664843,0.047590066,0.066866766,0.011497155,0.051342309
5.824,0.008665011,0.047590066,0.066867938,0.011496384,0.051343953
5.828,0.00866491,0.047588421874999995,0.06686375,0.011494808,0.051341805
5.832,0.008664675,0.047586343749999996,0.06686368,0.011493031249999999,0.051340464843749996
5.836,0.008665011,0.047586879,0.066866328,0.011492428,0.051341168
5.84,0.008665313,0.047587418,0.066866766,0.011491522460937499,0.051341203
5.844,0.008665681,0.047587184,0.066865523,0.011490349,0.051340332
5.848,0.008663401,0.047586043,0.066862141,0.011489678,0.051337918
5.852,0.008661893,0.047584938,0.066863383,0.011490818,0.051338086
5.856,0.00866139,0.047586242187499996,0.066868242,0.011493132,0.051340598
5.86,0.008661557,0.04758802,0.066869445,0.011494439,0.05134298
5.864,0.008661657,0.047588355468749996,0.066868914,0.011495209960937499,0.051345492187499994
5.868,0.008657198,0.047587449,0.06686593,0.011493937,0.051345257812499996
5.872,0.008656192,0.047586949,0.066866297,0.011493567,0.051344824218749995
5.876,0.00865626,0.047587585937499996,0.06686868,0.011494875,0.051345996
5.88,0.008656595,0.047587684,0.066868742,0.011496049,0.051346667968749996
5.884,0.008656896,0.047587117,0.066868039,0.011495209960937499,0.051347738
5.888,0.008654416,0.047586277,0.06686425,0.011493031249999999,0.051346332
5.892,0.008653477,0.047584633,0.066864523,0.011491387695312499,0.051346128906249996
5.896,0.008654248,0.047584367,0.066867469,0.011490416,0.051347672
5.9,0.008654349,0.047583695,0.066868109,0.011489878906249999,0.051349184
5.904,0.008653913,0.047583257812499995,0.066867,0.011489979,0.051349047
5.908,0.008651264,0.047581316,0.066863211,0.011488337,0.051347305
5.912,0.008650594,0.047579805,0.066862508,0.011487164,0.051345324218749995
5.916,0.00865113,0.047580074,0.066865094,0.011487029,0.051345461
5.92,0.008650493,0.047579707031249995,0.066865422,0.011487667,0.051344554687499995
5.924,0.008650426,0.047578465,0.066864758,0.011487834,0.051343414062499995
5.928,0.00864942,0.047576891,0.066860633,0.011486023,0.051338453124999996
5.932,0.008649219,0.047575078124999996,0.066860461,0.011485286,0.051335602
5.936,0.00865056,0.047574879,0.066863281,0.011485487,0.051336238281249995
5.94,0.008650426,0.047575281,0.066864016,0.011484515,0.051336609374999995
5.944,0.008650795,0.047576051,0.066862203,0.011483677,0.051335938
5.948,0.008648246,0.047575215,0.066858383,0.011483073242187499,0.051333422
5.952,0.008646135,0.047574742,0.066859555,0.011483911,0.051332652
5.956,0.008647375,0.047575313,0.066861969,0.011485253,0.051333660156249995
5.96,0.008648213,0.047575144531249995,0.066860563,0.01148475,0.051332585937499994
5.964,0.00864771,0.047574777,0.066859023,0.011483174,0.051329902
5.968,0.008644626,0.047573503906249995,0.066855297,0.011480625976562499,0.051326617
5.972,0.008643721,0.047572195312499996,0.066855602,0.011480055664062499,0.051324906249999996
5.976,0.008644994,0.047572464843749995,0.066858953,0.011480961,0.051326382812499995
5.98,0.008645229,0.047573,0.066859359,0.011481497070312499,0.051326046874999996
5.984,0.008645229,0.047572964843749996,0.066859125,0.011482,0.051325511718749994
5.988,0.008643452,0.047571961,0.066855031,0.011480156,0.05132216
5.992,0.008642614,0.047571121093749995,0.066855633,0.011477475,0.051320648
5.996,0.008643352,0.047571258,0.06685875,0.011476803710937499,0.051321253906249996
6,0.008643452,0.047571054687499996,0.066858453,0.011475227539062499,0.051321589843749994
6.004,0.008643922,0.047570789,0.066857242,0.011474791992187499,0.051321992
6.008,0.008643017,0.047569984,0.066853117,0.011474422851562499,0.051319777
6.012,0.008642748,0.047568171874999995,0.06685275,0.01147496,0.051318539062499995
6.016,0.008643854,0.047568273437499996,0.066855367,0.011476771,0.051318504
6.02,0.008643687,0.047569012,0.066855367,0.011477306640624999,0.051317465
6.024,0.008642982,0.047568339843749995,0.066854359,0.011477306640624999,0.051317128906249995
6.028,0.008641373,0.047566766,0.066850305,0.011476032,0.051313476562499995
6.032,0.008639328,0.047565055,0.066850906,0.011474121,0.051310859
6.036,0.008638523,0.047565187499999995,0.066854328,0.011473551757812499,0.051311629
6.04,0.00863963,0.047565422,0.066854195,0.011472612,0.051310793
6.044,0.008640837,0.047564953,0.066851883,0.011471170898437499,0.051308078124999996
6.048,0.008637484,0.047562809,0.066847555,0.011470366,0.051305058593749994
6.052,0.008635774,0.047560898,0.066848461,0.011470667968749999,0.051304992187499995
6.056,0.008637384,0.047560797,0.066850539,0.011470198,0.051305629
6.06,0.008637786,0.047560929687499996,0.066851813,0.011469594726562499,0.051305261718749995
6.064,0.008638188,0.047561535,0.066851508,0.011469393554687499,0.051306535
6.068,0.008636277,0.047560898,0.066847625,0.011469327,0.051303988
6.072,0.008635104,0.047560124999999995,0.066849164,0.011470266,0.051302578
6.076,0.008636444,0.04756073,0.066852555,0.011471238281249999,0.051303749999999995
6.08,0.008637651,0.04756073,0.066852148,0.011470769,0.051302878906249995
6.084,0.008637015,0.047560461,0.066850609,0.011470097656249999,0.051301875
6.088,0.008635104,0.047559019531249996,0.066847055,0.011467784,0.051298789062499996
6.092,0.00863212,0.047557914,0.066847789,0.011466075,0.051298219
6.096,0.008633159,0.047557277343749996,0.066849664,0.011466980468749999,0.051298789062499996
6.1,0.008634098,0.047556504,0.066850172,0.011467315,0.051298285
6.104,0.008634635,0.047556304687499995,0.066849664,0.011467650390624999,0.051297383
6.108,0.008630477,0.047554629,0.066847055,0.011467248,0.051296039
6.112,0.00862937,0.04755302,0.06684725,0.011466813,0.051296175781249995
6.116,0.008631114,0.047552949218749994,0.066850141,0.01146688,0.05129748
6.12,0.008631985,0.047552816,0.06685057,0.011467482,0.051297917968749995
6.124,0.008631784,0.047553586,0.066850234,0.011467985,0.051298285
6.128,0.008630645,0.047553184,0.066845141,0.011467482,0.051295035156249995
6.132,0.008630678,0.047551242187499995,0.066844234,0.011466980468749999,0.051291648
6.136,0.008632321,0.047551309,0.066846281,0.011467147460937499,0.051291917968749996
6.14,0.008632824,0.047551477,0.066845141,0.011466745,0.05129118
6.144,0.008632623,0.047550906,0.066843797,0.011466377,0.051291211
6.148,0.008629907,0.047549398,0.066840781,0.011465907226562499,0.051288832031249995
6.152,0.008628163,0.047547953,0.066842563,0.011466209,0.051289504
6.156,0.008628264,0.047548324,0.066846445,0.011468085937499999,0.051292753906249995
6.16,0.008628364,0.047549328,0.066848227,0.011470836,0.051294531
6.164,0.008628298,0.047550469,0.066847992,0.011472881,0.051294902
6.168,0.008628532,0.047548727,0.066842258,0.011473015,0.051289938
6.172,0.008627426,0.047547152343749996,0.066841617,0.011472612,0.05128843
6.176,0.008629103,0.047546648,0.066844,0.011473686,0.051287992
6.18,0.008628767,0.047545945,0.06684407,0.011474289,0.051287457
6.184,0.0086287,0.047546179687499995,0.066843836,0.011474088,0.051287792968749996
6.188,0.008627393,0.04754507,0.066841016,0.011472277,0.051286219
6.192,0.008627728,0.047543898437499996,0.066841789,0.011470635,0.051286050781249995
6.196,0.00862927,0.047543563,0.066843227,0.011470232421874999,0.051287324
6.2,0.008630544,0.047543531,0.066842328,0.011469997,0.051287421874999996
6.204,0.008631818,0.047543766,0.066839273,0.011470097656249999,0.051285246
6.208,0.008628097,0.047542422,0.066836594,0.011469562,0.051284640624999996
6.212,0.00862689,0.04754125,0.066838102,0.011468991,0.051285547
6.216,0.008629772,0.047541418,0.066840617,0.011469159179687499,0.051286652343749996
6.22,0.008631281,0.047540914062499995,0.066839641,0.011468421874999999,0.051286382812499996
6.224,0.008631919,0.047539941,0.066838,0.011467751,0.051286050781249995
6.228,0.008628867,0.047538937499999996,0.066834914,0.011467215,0.051283266
6.232,0.008628633,0.047537898,0.066834078,0.011467583007812499,0.051280617187499995
6.236,0.008629304,0.047538098,0.066838336,0.011468220703124999,0.05128216
6.24,0.008629907,0.047538602,0.066839203,0.011468153320312499,0.051283703124999996
6.244,0.008631449,0.04753927,0.066837094,0.011467751,0.051282227
6.248,0.008629605,0.047538332,0.066832938,0.011466377,0.051279445
6.252,0.008626654,0.047537761718749995,0.066832805,0.011466242,0.051277835937499995
6.256,0.008626018,0.047538332,0.066836125,0.011466175781249999,0.051280418
6.26,0.008626521,0.047538969,0.066837227,0.011465974609374999,0.051281188
6.264,0.008627694,0.047538867,0.066836656,0.011467014,0.051280015624999994
6.268,0.008624945,0.047538398,0.066833539,0.011467918945312499,0.051278605468749995
6.272,0.008623336,0.047537996,0.066834414,0.011467684,0.051277835937499995
6.276,0.008624073,0.047538602,0.066837734,0.011468187,0.051278574
6.28,0.008625984,0.047537996,0.066836758,0.011468085937499999,0.051278406
6.284,0.008626855,0.047538031,0.066835219,0.011467047,0.051278906
6.288,0.00862357,0.047536219,0.066831359,0.011465538,0.051277734374999995
6.292,0.008621894,0.047535449,0.066831867,0.011465035,0.051275355
6.296,0.008624274,0.047536355,0.066833844,0.011465974609374999,0.051275152
6.3,0.008624777,0.047536254,0.066832805,0.011466477539062499,0.051274246093749996
6.304,0.008625515,0.047535749999999995,0.066831727,0.011465035,0.051273176
6.308,0.008622732,0.047534042968749995,0.066828414,0.011462789,0.051270558593749994
6.312,0.008621491,0.047533102,0.066828211,0.011460442,0.051268078
6.316,0.00862176,0.047533738281249995,0.066831398,0.011459369,0.051268715
6.32,0.008622195,0.047534242,0.066831695,0.011458698242187499,0.051268883
6.324,0.008623,0.047533773437499996,0.066830156,0.011458129,0.051268683593749996
6.328,0.008620955,0.047532332,0.066826766,0.011456117,0.051266
6.332,0.008620586,0.047531895,0.066826805,0.011455413,0.051264691
6.336,0.008621928,0.047533070312499995,0.066830625,0.01145481,0.051266102
6.34,0.008622531,0.047533906,0.066830688,0.011453167,0.051267273
6.344,0.008623939,0.047534074,0.066828477,0.01145273,0.051267339843749996
6.348,0.00862347,0.047531828124999995,0.066824352,0.011451925781249999,0.05126382
6.352,0.008622799,0.047529378906249996,0.06682382,0.011450954101562499,0.051262414
6.356,0.008624408,0.047530687499999995,0.066825492,0.011451658,0.051262343749999995
6.36,0.008625381,0.047532031249999995,0.06682432,0.011452061,0.051260402
6.364,0.008622396,0.047532164,0.066826234,0.01145139,0.051262512
6.368,0.008621559,0.047531695,0.066823781,0.011449713,0.051261136718749996
6.372,0.008620687,0.047530687499999995,0.066823313,0.011447467,0.051260602
6.376,0.008622899,0.047530488,0.066824922,0.011446461,0.051261339843749996
6.38,0.008622632,0.047530254,0.06682432,0.011446227,0.0512605
6.384,0.008622564,0.047529378906249996,0.066822711,0.011445958,0.051259664062499995
6.388,0.008619982,0.047527535156249995,0.066819461,0.011445623046874999,0.051258121
6.392,0.008618876,0.047526765624999995,0.066819563,0.011445656,0.051258152343749995
6.396,0.008621559,0.047527035,0.066821438,0.011445388671874999,0.051257918
6.4,0.008622229,0.047527,0.066820031,0.011444416,0.051254566
6.404,0.008621626,0.047527203,0.066819594,0.011443946,0.051254297
6.408,0.00862005,0.047526195,0.066816813,0.011443176,0.051252589843749995
6.412,0.008618508,0.047524922,0.066816875,0.011443209,0.051251516
6.416,0.008619346,0.04752375,0.066820133,0.011444248,0.051253292968749996
6.42,0.008621491,0.047522543,0.066820133,0.011443108398437499,0.051254465
6.424,0.008622766,0.047521402,0.06681832,0.0114417,0.051254969
6.428,0.008621928,0.047520094,0.066814031,0.01143999,0.05125098
6.432,0.008618239,0.047518921874999995,0.066814297,0.011439756,0.051251246
6.436,0.008618373,0.047519457,0.066818922,0.011440727539062499,0.051255035156249996
6.44,0.008619681,0.047520027,0.066819055,0.011441230468749999,0.051255574218749995
6.444,0.008621559,0.047519726562499996,0.06681832,0.011441164,0.051254699
6.448,0.008618675,0.047519055,0.066816039,0.011441466,0.051252688
6.452,0.008616898,0.047518148,0.066816711,0.011442673,0.051251011718749996
6.456,0.008616999,0.047518988,0.066820469,0.011443846,0.051251918
6.46,0.008617267,0.047519891,0.066821102,0.011444416,0.051252355
6.464,0.00861881,0.047519961,0.066819664,0.011445522,0.051250813
6.468,0.008616831,0.047518047,0.066814836,0.011445791,0.051245582
6.472,0.008614015,0.047517043,0.066814633,0.011446628906249999,0.051243738
6.476,0.008617166,0.047518215,0.066816844,0.011448271,0.051243535
6.48,0.00861663,0.047518988,0.066817445,0.011448842,0.051243906
