time,F8,F4,Fz,F3,F7
0,0.034082563,0.035333914,0.09560318,0.027954283,0.032139402
0.004,0.034082094,0.035332773,0.095601906,0.027953144531249998,0.032139301
0.008,0.034081488281249996,0.035332875,0.095602516,0.027952238,0.032139
0.012,0.034080449218749996,0.035333109,0.095602813,0.027952105,0.032139168
0.016,0.034079609,0.035333609,0.095602781,0.027953277,0.032139133
0.02,0.034079109,0.035333543,0.095603047,0.027954451,0.032139736
0.024,0.034078906,0.035334113281249996,0.095602578,0.027955525,0.032140375
0.028,0.034078707031249995,0.03533418,0.095601742,0.027954787,0.032139369
0.032,0.034078773,0.035333711,0.095600938,0.027954720703124998,0.032138564
0.036,0.034078406,0.035334382812499995,0.095600805,0.027954955,0.032137826
0.04,0.034078371,0.03533502,0.095600672,0.027955424,0.03213843
0.044,0.034078738,0.035334449,0.095600531,0.027955961,0.032140006
0.048,0.034080012,0.035334382812499995,0.095599766,0.027956129,0.032140844
0.052,0.034080484,0.035334148,0.095599563,0.027955726562499998,0.032141447
0.056,0.034078672,0.035332875,0.095599695,0.027955424,0.032141949
0.06,0.034077699,0.035332168,0.095599461,0.027956697,0.032142889
0.064,0.034076293,0.035331164062499996,0.095599258,0.027957135,0.032142855468749995
0.068,0.034074852,0.035330258,0.095598891,0.02795757,0.032142720703124995
0.072,0.03407418,0.035329488,0.09559775,0.027958207031249998,0.032142352
0.076,0.034073309,0.035329320312499995,0.095595937,0.027957973,0.032142117
0.08,0.034072703,0.035329421874999996,0.095593492,0.027957099609374998,0.032141615
0.084,0.034072234374999996,0.035329921874999996,0.095591984,0.027957636718749998,0.032140609
0.088,0.034071867,0.035330391,0.095591211,0.027957703,0.032140708984374995
0.092,0.03407123,0.035330023,0.09559068,0.027956934,0.032140273
0.096,0.034070289,0.035329723,0.095591445,0.027957268,0.032140708984374995
0.1,0.034069351562499996,0.035329586,0.095591586,0.027957771484374998,0.032141381
0.104,0.034068613,0.035330629,0.095591281,0.027958877,0.032141949
0.108,0.034068512,0.035330695,0.095592117,0.027959279,0.032142720703124995
0.112,0.034068781,0.035330227,0.095591617,0.027958642578124998,0.032142720703124995
0.116,0.034068348,0.035329656,0.095589938,0.027957904,0.032142318
0.12,0.034067441406249996,0.035329254,0.095589336,0.027958207031249998,0.032141883
0.124,0.03406791,0.035329254,0.09558907,0.027957436,0.032140777343749996
0.128,0.034068445,0.03532902,0.095588602,0.027957335937499998,0.032140441
0.132,0.034068348,0.035328984,0.095588227,0.027957771484374998,0.032139871
0.136,0.034069387,0.035328816,0.095586852,0.027957201171874998,0.032139402
0.14,0.034069887,0.035328648,0.095585281,0.027955424,0.032138229
0.144,0.034070121093749996,0.035328816,0.095584406,0.027954082031249997,0.032137826
0.148,0.034069887,0.035328516,0.095583031,0.027952875,0.032138262
0.152,0.034069754,0.035328145,0.095581789,0.027952574218749998,0.032137156
0.156,0.034069316,0.03532848,0.095581125,0.027952674,0.032136217
0.16,0.034069249999999995,0.035328379,0.095581188,0.027953177734374998,0.032137490234374996
0.164,0.034068648,0.035328179687499996,0.095580984,0.027954082031249997,0.032138061
0.168,0.034067473,0.035327543,0.095581023,0.027954553,0.032137256
0.172,0.034067039,0.035327574,0.095581453,0.027954686,0.032135547
0.176,0.034068277,0.035328011718749996,0.095579984,0.027954183593749998,0.032134809
0.18,0.034068246,0.035327477,0.095578438,0.027953277,0.032133466796874996
0.184,0.034067473,0.035326805,0.095577133,0.027952306640624997,0.032132797
0.188,0.034066938,0.035326336,0.095575187,0.027951232,0.032132328
0.192,0.034066031249999996,0.035325898437499996,0.095574383,0.027951066,0.032132730468749995
0.196,0.034064824,0.035325832,0.095573609,0.027950294921874997,0.032132328
0.2,0.034064324,0.035325898437499996,0.095572844,0.02794949,0.032132127
0.204,0.034064355,0.035325633,0.095572773,0.027950061,0.032133367
0.208,0.03406409,0.035324727,0.095572,0.027950061,0.03213407
0.212,0.034062813,0.035323418,0.095570828,0.027950797,0.032134640624999995
0.216,0.03406184,0.035323082,0.095571094,0.027952271,0.032133971
0.22,0.034061339843749996,0.035322445,0.095572672,0.027953613281249998,0.032133668
0.224,0.034059695,0.03532191,0.095573914,0.027955792968749997,0.032134742187499996
0.228,0.034058621,0.035321441,0.095572906,0.027956630859374998,0.032135043
0.232,0.034058152343749995,0.035320937499999996,0.095572773,0.027956363,0.032136016
0.236,0.034058789,0.035321742,0.09557093,0.027955559,0.032137021
0.24,0.03405993,0.035322445,0.095561203,0.027955189453124998,0.032138162
0.244,0.034059563,0.035321945,0.095553633,0.02795452,0.032139
0.248,0.034058656,0.035321441,0.095551516,0.027954016,0.032137658203124995
0.252,0.034059059,0.035321305,0.095551352,0.027953580078124998,0.032135814
0.256,0.034059094,0.035321238,0.095552891,0.027953580078124998,0.032135076
0.26,0.034059965,0.035321874999999996,0.095554234,0.027953916,0.03213501
0.264,0.034059965,0.035321809,0.095555039,0.027953111,0.032135713
0.268,0.034059394531249995,0.035321609,0.095554633,0.027953748046874997,0.032136352
0.272,0.034059124999999996,0.035321207031249996,0.095554336,0.02795301,0.032135848
0.276,0.034058824,0.035320738,0.095553461,0.02795167,0.032135445
0.28,0.034058891,0.035320402,0.095553664,0.02795083,0.032135547
0.284,0.034058723,0.035320535,0.095554734,0.027950227,0.03213615
0.288,0.03405916,0.0353205,0.095553727,0.027950463,0.032135748046874996
0.292,0.03405973,0.035320167968749996,0.095551313,0.027949658203124998,0.032135982
0.296,0.034059828,0.035319964843749996,0.095550273,0.027949691406249998,0.032135848
0.3,0.034059328124999996,0.035320199,0.095549273,0.027950595703124997,0.032135580078124996
0.304,0.034059394531249995,0.035319832,0.095547289,0.027950427734374998,0.032136016
0.308,0.034059496093749995,0.035319293,0.09554568,0.027950294921874997,0.032136955
0.312,0.034058621,0.035319293,0.095545781,0.027952205,0.032137826
0.316,0.034057281,0.035319531,0.095545352,0.027954150390624998,0.032138664062499996
0.32,0.034056543,0.03531916,0.095544211,0.027954922,0.032139369
0.324,0.034055035156249996,0.035318559,0.095542797,0.027955189453124998,0.032140105
0.328,0.034053629,0.035318121,0.095542766,0.027955624999999998,0.032141313
0.332,0.03405259,0.035319195312499996,0.095541758,0.027956765624999998,0.03214185
0.336,0.034051011718749996,0.035319898,0.095539813,0.027957636718749998,0.032143225
0.34,0.034050578,0.035320098,0.095538141,0.027957771484374998,0.032144633
0.344,0.034051715,0.035320367,0.095537305,0.027957201171874998,0.032144732421874996
0.348,0.034051313,0.035320367,0.095536695,0.027956934,0.032144197
0.352,0.034050441,0.035320434,0.095535523,0.027955859,0.03214433
0.356,0.034050645,0.035320335937499996,0.095533813,0.027954451,0.032144129
0.36,0.034051582,0.035320535,0.095533211,0.027953412,0.032142084
0.364,0.034052219,0.035321105468749996,0.095533281,0.027953412,0.032140844
0.368,0.034051617,0.03532218,0.095532672,0.027953076171874997,0.032140508
0.372,0.034051449,0.035322715,0.095531766,0.027952943,0.032140174
0.376,0.034051414,0.035323082,0.095531195,0.02795301,0.032139871
0.38,0.034050074,0.03532248,0.095531703,0.027953346,0.032139938
0.384,0.034049469,0.035321809,0.095531805,0.027954117,0.032139301
0.388,0.034048598,0.035322313,0.095531602,0.02795482,0.032138598
0.392,0.034047762,0.035322547,0.095532508,0.027955792968749997,0.032139334
0.396,0.034047359374999996,0.035322144531249995,0.095534281,0.027956865,0.032140609
0.4,0.034047625,0.035321207031249996,0.095535727,0.027957804687499997,0.03214118
0.404,0.034048195,0.035320668,0.09553707,0.027958609,0.032140777343749996
0.408,0.034049973,0.035321676,0.09553757,0.027958374999999997,0.032140174
0.412,0.034050441,0.035321609,0.095535289,0.027957066406249998,0.032140174
0.416,0.034050910156249996,0.035321305,0.095533609,0.027955994,0.032140441
0.42,0.034051582,0.035321707031249996,0.095531672,0.02795452,0.032139904
0.424,0.034051617,0.035321809,0.095530727,0.027953646484374997,0.032139268
0.428,0.034051348,0.035321742,0.09553093,0.027953514,0.032138697
0.432,0.03405202,0.035321707031249996,0.095531367,0.027954418,0.032138496093749996
0.436,0.034053426,0.035321141,0.095529961,0.027953781,0.032137961
0.44,0.034053258,0.035320367,0.095528922,0.027953379,0.032137021
0.444,0.034053492,0.035320637,0.095528688,0.027953277,0.032135982
0.448,0.034054297,0.035320602,0.09552718,0.027952271,0.032135211
0.452,0.034054602,0.035320703,0.095525898,0.02795167,0.032134809
0.456,0.034054433593749996,0.035320805,0.095525133,0.027951568359374998,0.032135646484374995
0.46,0.03405507,0.035320535,0.095523391,0.027950025390624997,0.03213568
0.464,0.034055304687499996,0.035320637,0.095522211,0.027949859,0.03213491
0.468,0.034055304687499996,0.035321003906249995,0.095522383,0.027950126953124998,0.03213434
0.472,0.034054031,0.035320703,0.095522617,0.027950395,0.032133836
0.476,0.034053629,0.035319934,0.095522883,0.027950898,0.032133736328124995
0.48,0.034052688,0.03531916,0.095522852,0.0279511,0.0321331
0.484,0.034052453,0.035319195312499996,0.095523555,0.027951703124999998,0.03213283
0.488,0.034052117,0.035319461,0.095523961,0.0279514,0.032133232
0.492,0.034052117,0.035319293,0.095522852,0.027950730468749997,0.032133971
0.496,0.034052621,0.035319629,0.095521641,0.027950328,0.032133266
0.5,0.034053426,0.035320434,0.095520469,0.027950160156249997,0.0321334
0.504,0.034054566,0.035320335937499996,0.095519867,0.027949188,0.032133232
0.508,0.034055972656249996,0.035320703,0.0955195,0.027946238281249997,0.032132697265624996
0.512,0.034057082,0.035320266,0.095518625,0.027945131,0.032131088
0.516,0.034056543,0.035320132812499995,0.095517719,0.027945566,0.032130383
0.52,0.034055203124999996,0.035319598,0.09551725,0.027945968749999998,0.032130986
0.524,0.034053559,0.03531943,0.095516953,0.027946404296874998,0.032131221
0.528,0.034051648,0.035318625,0.095516484,0.027946371,0.032132529
0.532,0.034050008,0.03531725,0.095515203,0.027946605,0.032134172
0.536,0.034049133,0.035317617,0.095514469,0.027946707,0.032133668
0.54,0.034049773,0.03531752,0.095513461,0.027945332,0.032132496
0.544,0.034050645,0.035317449,0.095511891,0.027943789,0.032131656
0.548,0.034050945,0.035316746,0.095510578,0.027942951171874997,0.03213149
0.552,0.034050777,0.035315941406249995,0.095508297,0.027943052734374998,0.032131221
0.556,0.034050508,0.035316210937499995,0.095505352,0.027943824,0.032130449218749996
0.56,0.034050609,0.035317383,0.095503703,0.027944962890624998,0.032131389
0.564,0.034051215,0.035318156249999996,0.095502469,0.027945365,0.032131893
0.568,0.034050777,0.035318156249999996,0.095500859,0.027946371,0.032132059
0.572,0.034050176,0.035318086,0.095500016,0.027947244140624997,0.03213149
0.576,0.034049167968749995,0.035317719,0.095500289,0.027947947,0.032130718749999995
0.58,0.034049035,0.035318188,0.095500586,0.027948685546874998,0.032129746
0.584,0.034049469,0.035318289,0.095500086,0.027948518,0.032128941
0.588,0.034049469,0.035318457,0.09550025,0.027947779,0.032128338
0.592,0.034049336,0.035319598,0.095499719,0.027947209,0.032127936
0.596,0.034048898437499996,0.035319832,0.095499109,0.027946707,0.032127734
0.6,0.034049269531249995,0.035319863281249995,0.09549918,0.027946203,0.032126662109374995
0.604,0.034048598,0.035320167968749996,0.095499516,0.027945968749999998,0.032126627
0.608,0.034046988281249996,0.035320434,0.095499984,0.027945801,0.032127633
0.612,0.034045949218749996,0.035320301,0.095500391,0.027945566,0.032128707
0.616,0.03404652,0.035320535,0.09549968,0.027945701,0.032129277
0.62,0.034046453,0.035319262,0.095497773,0.027945467,0.032130718749999995
0.624,0.034046082,0.035318422,0.095496797,0.027945064453124998,0.03213102
0.628,0.034046051,0.035319363281249995,0.09549643,0.027945533203124998,0.032130215
0.632,0.03404575,0.035320301,0.095496398,0.027946572265624997,0.032130583984374995
0.636,0.034045984,0.035320535,0.095496062,0.027947043,0.032130887
0.64,0.034046418,0.035320871,0.09549093,0.027946908,0.032131959
0.644,0.034047089843749996,0.035321374999999995,0.095484594,0.027947176,0.032131992
0.648,0.034046586,0.035321473,0.095484328,0.027946842,0.032131992
0.652,0.03404575,0.035320703,0.095484398,0.027946473,0.032132629
0.656,0.034044976562499996,0.035320871,0.095485031,0.027946238281249997,0.032132797
0.66,0.034044676,0.03532134,0.095486438,0.027946439,0.0321331
0.664,0.034044473,0.035321777,0.095487852,0.027946572265624997,0.0321334
0.668,0.034044273,0.035322648,0.095488688,0.027946640624999998,0.0321331
0.672,0.034043703,0.03532352,0.095489859,0.027946807,0.03213216
0.676,0.034043637,0.035325296874999995,0.095491102,0.027946908,0.032130449218749996
0.68,0.034044676,0.035325094,0.095491305,0.027946941,0.032128908
0.684,0.034045313,0.035324859374999996,0.09548993,0.027946572265624997,0.032128203
0.688,0.034045883,0.035324828,0.095489422,0.027945566,0.032127768
0.692,0.034045918,0.035324961,0.095489086,0.027944158,0.032127029
0.696,0.03404625,0.035324895,0.09548825,0.027942852,0.032126326
0.7,0.034046218749999996,0.035324996,0.095487008,0.027942449,0.032125789
0.704,0.034045648,0.03532382,0.095485937,0.027942215,0.032126125
0.708,0.034044375,0.035323117187499996,0.095484398,0.02794302,0.032126425781249995
0.712,0.034043335937499995,0.035322715,0.095483258,0.027942951171874997,0.032127266
0.716,0.034043535,0.035322379,0.095482648,0.027941107,0.032127098
0.72,0.034043102,0.035321207031249996,0.095481375,0.027939498046874997,0.032126560546874995
0.724,0.034042629,0.035320367,0.095480375,0.027938727,0.032125488281249996
0.728,0.034043234,0.035320871,0.095480039,0.027938593749999997,0.032124281
0.732,0.034043805,0.035320602,0.095478391,0.027938225,0.032123074
0.736,0.034043937499999996,0.035319832,0.095477219,0.027937888671874998,0.032122503906249995
0.74,0.034042832,0.035319195312499996,0.095476719,0.027938324218749998,0.03212341
0.744,0.034041824218749996,0.035318086,0.095475609,0.027937756,0.032123509765624995
0.748,0.03404159,0.035317754,0.095474305,0.027936916,0.032122102
0.752,0.034041625,0.035317148,0.09547343,0.027936715,0.032120795
0.756,0.034040953124999995,0.035317418,0.0954735,0.027937252,0.032119721
0.76,0.034041054687499996,0.035318859,0.095474,0.027937855468749998,0.032118145
0.764,0.034041824218749996,0.035318925781249996,0.095473164,0.027937554687499998,0.032117475
0.768,0.03404243,0.035318156249999996,0.095470781,0.02793675,0.032116469
0.772,0.034042563,0.035317953124999996,0.09546857,0.027936514,0.032115429687499995
0.776,0.034041156249999996,0.035317117,0.095467797,0.027936984374999998,0.032115429687499995
0.78,0.034039883,0.03531641,0.095468164,0.027937285156249998,0.032116267578124996
0.784,0.034038742,0.035315742,0.095467664,0.027936849609374998,0.032116973
0.788,0.034036695,0.035316344,0.095467633,0.027937654,0.032117408203124996
0.792,0.034035926,0.035317117,0.095467898,0.027938425781249998,0.03211724
0.796,0.034037164,0.03531752,0.095466219,0.027937990234374998,0.032115932
0.8,0.034037902343749996,0.035316512,0.09546257,0.027936849609374998,0.032115261718749996
0.804,0.034037836,0.035314434,0.095460086,0.027936648,0.032114255859374996
0.808,0.034037535,0.035313023,0.095458312,0.027936414062499998,0.032114523
0.812,0.03403723,0.035312723,0.095458477,0.027935843749999998,0.032113955
0.816,0.034036898,0.035312656,0.095459312,0.027935811,0.032112814
0.82,0.034036027,0.035312055,0.095459016,0.027936381,0.032112145
0.824,0.034035523,0.035312422,0.095459148,0.027936615,0.032110668
0.828,0.034034215,0.035312656,0.095459453,0.027937354,0.032109629
0.832,0.034034582031249996,0.035312555,0.095459352,0.027937789,0.032108824
0.836,0.034035054687499997,0.035312188,0.095458344,0.027938393,0.032109058593749996
0.84,0.034034749999999996,0.035311047,0.09545707,0.027937756,0.032109529
0.844,0.034033980468749996,0.035311249999999995,0.095456469,0.027936648,0.032108254
0.848,0.034033344,0.035310543,0.095454922,0.027934604,0.032107248
0.852,0.034032137,0.035309941406249996,0.095454422,0.027933766,0.03210641
0.856,0.034031398,0.035309906249999995,0.095455492,0.027933396484374998,0.032106377
0.86,0.034031164,0.035308902,0.095456867,0.027932658,0.032107214843749995
0.864,0.034030461,0.035307961,0.095457133,0.027933195,0.032108758
0.868,0.034029992,0.03530766,0.095457375,0.027933162,0.032109025
0.872,0.034030961,0.035307191,0.095456969,0.027932223,0.032108389
0.876,0.034030726562499995,0.035307023,0.095456328,0.027931787109374998,0.032108121
0.88,0.034029488,0.035307695,0.095456234,0.027932156,0.032108355468749995
0.884,0.034029957031249995,0.035307023,0.095455664,0.027931117,0.032107686
0.888,0.0340315,0.035307156,0.095456164,0.027929808593749997,0.032105404
0.892,0.034031164,0.035308195,0.095457437,0.027929775390624998,0.032104668
0.896,0.034030125,0.035308934,0.095457844,0.027930313,0.032104768
0.9,0.034029656,0.035309238281249995,0.095457039,0.027930949218749997,0.032105875
0.904,0.034029051,0.035308902,0.095456898,0.027931249999999998,0.03210668
0.908,0.034028145,0.035308465,0.095457203,0.027931619,0.03210584
0.912,0.03402627,0.035308129,0.095457844,0.027931853515624997,0.032104668
0.916,0.034025465,0.035308398,0.095458078,0.027932893,0.032104734
0.92,0.034026773,0.035307293,0.095457641,0.027932123,0.032104969
0.924,0.03402734,0.035306922,0.095457937,0.027931384765624998,0.032104398
0.928,0.034026938,0.035306824,0.095457703,0.027930781249999998,0.032103494
0.932,0.034026203,0.03530632,0.095456898,0.027930210937499998,0.032103025
0.936,0.034026402,0.035307461,0.095455125,0.027929910156249998,0.032102756
0.94,0.034027007812499996,0.035307961,0.095449461,0.027930279,0.032102689
0.944,0.034026203,0.035307191,0.09544668,0.02793058,0.032102723
0.948,0.034025566,0.035305648,0.095445773,0.027931721,0.032103227
0.952,0.034025094,0.035304675781249996,0.095445398,0.027931787109374998,0.032103191406249995
0.956,0.034025094,0.035304777343749996,0.095445266,0.027930949218749997,0.032102656
0.96,0.034025195,0.03530518,0.095443594,0.027930244140624998,0.032103158203124996
0.964,0.034025898,0.035304843749999995,0.095442148,0.027929307,0.032103393
0.968,0.034026773,0.035304441,0.09544118,0.027927529,0.032102287109374995
0.972,0.034026672,0.035303605,0.095440641,0.02792659,0.032102521
0.976,0.034025597656249996,0.035303336,0.095439062,0.02792602,0.032102891
0.98,0.034023753906249996,0.035302496,0.095437891,0.027925617187499998,0.032102789
0.984,0.034022313,0.035301762,0.095437992,0.027925719,0.032102891
0.988,0.034020938,0.035301457,0.095438227,0.027925617187499998,0.032102119140624996
0.992,0.03402,0.035300855468749996,0.095437258,0.027926691,0.032101281249999995
0.996,0.034019395,0.035301023437499995,0.095437687,0.027926959,0.032101014
1,0.034019598,0.035302664062499996,0.095438727,0.027926422,0.032099639
1.004,0.034019562499999996,0.035302898,0.095440203,0.027926691,0.032098966796874996
1.008,0.034019262,0.035302027,0.095440172,0.027927094,0.032099471
1.012,0.034019395,0.035301492,0.095440141,0.027927361328124997,0.032099738
1.016,0.034019730468749995,0.035301324,0.095439938,0.027927094,0.032100275390624995
1.02,0.034019129,0.03530025,0.095439031,0.027927262,0.032101783
1.024,0.034018691406249996,0.03529891,0.095438492,0.02792659,0.032101951
1.028,0.034018254,0.035299011718749995,0.09543843,0.027926256,0.032101146484374996
1.032,0.034018121,0.035299109,0.095437289,0.027925652,0.032100611
1.036,0.034017921874999996,0.035298843749999996,0.095435477,0.027924244,0.032100174
1.04,0.03401725,0.035298843749999996,0.095434305,0.027923203124999997,0.032100174
1.044,0.034016410156249996,0.035298676,0.095434133,0.027922869140624997,0.032099504
1.048,0.034015977,0.035298406,0.095433367,0.027922936,0.032098867
1.052,0.034015238,0.035297168,0.095432766,0.027922768,0.032098162
1.056,0.034014535,0.035296496,0.095433094,0.027922566,0.032097627
1.06,0.034013527343749995,0.035295055,0.095432227,0.027922768,0.032098633
1.064,0.034012055,0.035293613,0.09543132,0.027922768,0.032100777
1.068,0.034010847656249996,0.035293813,0.095431086,0.027923169921874998,0.032101482
1.072,0.034011418,0.035294281,0.095431219,0.027922533,0.032100744
1.076,0.034011852,0.035294684,0.095430617,0.027921896,0.032099972656249996
1.08,0.034011383,0.035294215,0.09542857,0.027921227,0.032100375
1.084,0.034011016,0.035293445,0.095427094,0.027921259765624998,0.032100208984374996
1.088,0.034010847656249996,0.035292406,0.095426094,0.027920053,0.032100611
1.092,0.034011316,0.035291133,0.095423977,0.02791841,0.032100611
1.096,0.034011582,0.035290059,0.095422133,0.027916834,0.032100041
1.1,0.034011852,0.035289859374999996,0.095420555,0.027916062499999998,0.032099101562499996
1.104,0.034011886718749995,0.035290395,0.095418984,0.027915023,0.032097056640624996
1.108,0.034011684,0.035290359,0.095418617,0.027915359374999997,0.032095682
1.112,0.034011449218749996,0.035290527343749996,0.095417812,0.027915258,0.032095078124999996
1.116,0.034010578124999996,0.035290695312499995,0.095416867,0.027914889,0.032096285
1.12,0.034010746093749995,0.035290695312499995,0.095416672,0.027913951,0.032095212890624995
1.124,0.034010141,0.035290563,0.095416164,0.027914018,0.032094105
1.128,0.034009102,0.035290863,0.0954165,0.027914218749999997,0.032095648
1.132,0.034009437499999996,0.035290996,0.095415766,0.027913984,0.032096955078124996
1.136,0.034009738,0.035289789,0.095415563,0.027913246,0.032096588
1.14,0.034010543,0.035289691,0.095416602,0.027913111,0.032095279
1.144,0.034011281,0.035290863,0.095417141,0.027914285,0.032094910156249996
1.148,0.034011347656249996,0.035291199,0.095417508,0.027915023,0.032095111
1.152,0.034010374999999995,0.035291199,0.09541757,0.027913951,0.032094877
1.156,0.034009503906249995,0.035290594,0.095416672,0.027914018,0.032094777
1.16,0.034008296874999996,0.035290328,0.095415258,0.027915459,0.032094541
1.164,0.034007359,0.035290191,0.095415359,0.027916398,0.032094375
1.168,0.034007996,0.035288852,0.095417875,0.027915492187499998,0.032093604
1.172,0.034006824218749995,0.035287043,0.095420555,0.027915459,0.032094139
1.176,0.03400632,0.035286168,0.095421227,0.027915794921874997,0.032095111
1.18,0.034006855,0.035286605468749996,0.095421227,0.027915660156249997,0.032095279
1.184,0.034006688,0.035287008,0.095422367,0.027915291,0.032094844
1.188,0.034006188,0.035287374999999996,0.095422734,0.027915191406249998,0.032093436
1.192,0.034005852,0.035288347656249996,0.095422336,0.027916197265624998,0.032092664
1.196,0.034005144531249996,0.035289422,0.095422469,0.027916867,0.03209149
1.2,0.034005047,0.035289859374999996,0.095421766,0.027916029,0.032090586
1.204,0.034005113,0.035289289,0.0954215,0.027915794921874997,0.032089547
1.208,0.034005515624999996,0.035288316,0.095421266,0.027916867,0.032090150390624995
1.212,0.034004812499999995,0.035287847656249996,0.095420523,0.027918107421874998,0.032091928
1.216,0.034004508,0.03528768,0.095420125,0.027917705078124997,0.032092094
1.22,0.034004812499999995,0.035287277,0.095419586,0.027917303,0.032093268
1.224,0.034004207,0.035286906,0.095418078,0.027916834,0.032094139
1.228,0.034003805,0.035286906,0.095416437,0.027915996,0.032093201171874995
1.232,0.034004309,0.035287512,0.095415023,0.027915492187499998,0.03209243
1.236,0.034004812499999995,0.035288047,0.095414258,0.027915123,0.03209243
1.24,0.034004746093749996,0.035288684,0.09541268,0.027914957,0.032091928
1.244,0.034004777,0.035289457,0.09541107,0.027915123,0.032091727
1.248,0.034004711,0.03529016,0.095407484,0.027915660156249997,0.0320931
1.252,0.034004207,0.03528959,0.095406375,0.027914354,0.032093201171874995
1.256,0.03400384,0.035288414062499995,0.095406211,0.027914018,0.032092094
1.26,0.034005078,0.035288281,0.095405336,0.027913615234374998,0.032090553
1.264,0.034005852,0.035288215,0.095403492,0.027913513671874998,0.032090418
1.268,0.034005515624999996,0.035288012,0.095401578,0.027913513671874998,0.032090787
1.272,0.034006789,0.035288684,0.095396219,0.027913682,0.032089880859374996
1.276,0.034008266,0.035288617187499996,0.095391992,0.027914252,0.032088406
1.28,0.034007762,0.03528741,0.095391555,0.027912576,0.032088874999999996
1.284,0.034006254,0.035287476562499996,0.095391555,0.027912039062499998,0.032090117187499996
1.288,0.034005144531249996,0.035287109,0.095392094,0.027912811,0.032091727
1.292,0.034004777,0.03528684,0.095393602,0.027913179687499998,0.032092027343749996
1.296,0.034005078,0.035288113,0.095396555,0.027914083984374997,0.032091123046874996
1.3,0.034004242,0.035289386718749996,0.095398461,0.027915393,0.032090318
1.304,0.034003503906249996,0.035289289,0.095399102,0.027915561,0.032090754
1.308,0.034002898,0.035288582,0.09539893,0.027915861,0.032092060546874995
1.312,0.034002969,0.035288449,0.095398297,0.027916566,0.032092732
1.316,0.03400357,0.03528875,0.095397891,0.027916230468749997,0.032093033203124996
1.32,0.034003137,0.035289656249999996,0.095397758,0.027915895,0.032092664
1.324,0.034002063,0.03529123,0.095396484,0.027915123,0.032091223
1.328,0.034001660156249995,0.035290965,0.095395781,0.02791385,0.032090184
1.332,0.034001761718749995,0.035290262,0.095395711,0.027914050781249998,0.032089445
1.336,0.034002496,0.035289925781249995,0.09539518,0.027913951,0.032088473
1.34,0.034002969,0.03528932,0.095394672,0.027913381,0.032088373
1.344,0.034003336,0.03528902,0.095394305,0.027912576,0.032088373
1.348,0.034004344,0.035289757812499996,0.095394641,0.027912777,0.032087736
1.352,0.034005449,0.035289925781249995,0.095394641,0.027913246,0.032087535
1.356,0.034005047,0.035288953,0.095394875,0.027914018,0.032088709
1.36,0.034004008,0.035287309,0.09539407,0.027913682,0.032089613
1.364,0.034004542968749996,0.035286605468749996,0.095394008,0.027912609374999998,0.032089781
1.368,0.034004578,0.035286941,0.095394141,0.027912307,0.032090117187499996
1.372,0.034003300781249995,0.03528684,0.095393766,0.027912273,0.032090385
1.376,0.034002766,0.035286738,0.09539293,0.027913111,0.032090318
1.38,0.034001793,0.035287578124999996,0.09539243,0.027913682,0.032091324
1.384,0.034002332,0.03528741,0.095391555,0.027913549,0.03209149
1.388,0.034003738,0.035287512,0.095391727,0.027913012,0.032090553
1.392,0.034003035,0.035287277,0.095392797,0.027913179687499998,0.032090553
1.396,0.034001055,0.035286605468749996,0.095392961,0.027914252,0.032091625
1.4,0.03400032,0.035286168,0.095393297,0.027914285,0.032092898437499996
1.404,0.034000586,0.035285934,0.095392961,0.027914218749999997,0.03209233
1.408,0.034000249999999996,0.03528684,0.095391523,0.027913951,0.032091088
1.412,0.033999277343749995,0.035287176,0.09538975,0.027913414,0.032090217
1.416,0.033999918,0.035287512,0.095389008,0.027913279,0.032089479
1.42,0.034001156,0.035287445,0.095387234,0.027911436,0.032089748
1.424,0.034001289062499995,0.035286641,0.095385961,0.027910295,0.032091156249999996
1.428,0.03400109,0.035286438,0.095386828,0.027911,0.032092229
1.432,0.034001761718749995,0.035286605468749996,0.095387063,0.027912441,0.032091928
1.436,0.034001222656249996,0.035285531,0.095386898,0.027913212890624997,0.032092865
1.44,0.034000586,0.035284727,0.095386563,0.027913615234374998,0.032093736
1.444,0.033999277343749995,0.035284762,0.095386023,0.027914789062499997,0.032094173828124996
1.448,0.033998742,0.035285835937499996,0.095386492,0.027915359374999997,0.032093436
1.452,0.033999715,0.035286973,0.095387297,0.02791499,0.032092463
1.456,0.034000688,0.035287344,0.095386359,0.027914018,0.032090754
1.46,0.034000484,0.035287777,0.095385352,0.027913447,0.032090217
1.464,0.034001191,0.035288484,0.095385352,0.027912877,0.032090217
1.468,0.034002566,0.035288582,0.095384922,0.027911436,0.032089982421874996
1.472,0.034003102,0.035287945,0.095384586,0.027910664,0.032089814
1.476,0.034002934,0.035287777,0.095385016,0.027910295,0.032089982421874996
1.48,0.034002969,0.035288082,0.095385555,0.027910027343749998,0.032090418
1.484,0.034002766,0.035288652,0.095384922,0.027910229,0.032090754
1.488,0.034002898,0.035289219,0.095384148,0.027909424,0.032089982421874996
1.492,0.034002934,0.035289355,0.095384016,0.027909021484374998,0.032090553
1.496,0.034001492187499996,0.035289086,0.095384781,0.02790976,0.032090854
1.5,0.034000652,0.035288617187499996,0.095384047,0.027910027343749998,0.032091223
1.504,0.033999078,0.035288047,0.095383242,0.027909558593749998,0.032092363
1.508,0.033998710937499996,0.035287476562499996,0.095382938,0.027909357,0.032092162109374996
1.512,0.033999078,0.035287512,0.095382836,0.027909658,0.032091021484374996
1.516,0.033998809,0.035287777,0.095383172,0.027910664,0.032091424
1.52,0.033998273,0.035287777,0.095383711,0.027911268,0.032091088
1.524,0.033997133,0.035288515624999996,0.095384547,0.027912273,0.032091391
1.528,0.033996965,0.03528932,0.095385289,0.027913246,0.032092195
1.532,0.033996797,0.035289859374999996,0.095385453,0.027914387,0.032093066406249995
1.536,0.033997199218749996,0.035290563,0.095385688,0.027915056640624998,0.032093268
1.54,0.033997836,0.035291031,0.095385555,0.027914922,0.032093167968749996
1.544,0.033997434,0.035291133,0.095385859,0.027914822,0.032093033203124996
1.548,0.033997199218749996,0.035291602,0.095386195,0.027915626953124998,0.032094006
1.552,0.033997199218749996,0.035291199,0.095385086,0.027914688,0.032095012
1.556,0.033998039,0.035290664,0.095382875,0.027913783203124997,0.032094777
1.56,0.033999348,0.035290796874999995,0.095381531,0.027914083984374997,0.03209434
1.564,0.034000152,0.035291434,0.095382469,0.027914218749999997,0.03209434
1.568,0.034000957,0.035291301,0.095381867,0.027914588,0.032094475
1.572,0.034000722656249996,0.035291098,0.095381398,0.027914318,0.032094375
1.576,0.034000117,0.035291535,0.095381367,0.027914050781249998,0.032094676
1.58,0.033999781,0.035291434,0.095380227,0.027913951,0.032094441
1.584,0.034000351562499996,0.035291633,0.095378719,0.027913447,0.032094273
1.588,0.034001426,0.035291602,0.095378109,0.027912207031249997,0.032093937499999996
1.592,0.034001527,0.03529123,0.095377141,0.027912375,0.032093334
1.596,0.034002027,0.035292035,0.095376133,0.027912375,0.032092664
1.6,0.034001660156249995,0.035292808593749996,0.095376305,0.027912474609374998,0.032093436
1.604,0.034000957,0.035292539062499996,0.095376469,0.027913414,0.032094105
1.608,0.03400082,0.035292305,0.095374961,0.027914555,0.032093838
1.612,0.034000652,0.035292137,0.095373484,0.027914621093749998,0.032094709
1.616,0.034000484,0.035292105,0.09537318,0.027914387,0.032095447
1.62,0.034001222656249996,0.035291937499999995,0.095372914,0.027914453,0.03209642
1.624,0.034001996,0.035292004,0.095370836,0.027914318,0.032096822
1.628,0.034000688,0.035292640624999996,0.095369164,0.027913212890624997,0.032096117187499995
1.632,0.033999547,0.035292941,0.095367789,0.027912207031249997,0.032095313
1.636,0.033999480468749996,0.035292305,0.095367617,0.027911402,0.032093937499999996
1.64,0.033998641,0.035291969,0.095368492,0.027911501953124997,0.032092766
1.644,0.033997535,0.03529234,0.095368828,0.027912609374999998,0.032092262
1.648,0.033996629,0.035292105,0.095368961,0.027912609374999998,0.032091559
1.652,0.033996461,0.035291602,0.095369461,0.027911939,0.032090217
1.656,0.033996429687499996,0.035291836,0.095368156,0.027910934,0.032090150390624995
1.66,0.033996934,0.035291937499999995,0.09536668,0.027909457031249998,0.032090082
1.664,0.033997266,0.035291434,0.095365977,0.027908318,0.032089144531249995
1.668,0.033997402,0.035291602,0.095366109,0.027907748,0.032088775
1.672,0.033996461,0.035291301,0.095365844,0.02790748,0.032089479
1.676,0.033995758,0.035290762,0.095364734,0.027906373,0.032088406
1.68,0.033994852,0.035290527343749996,0.095364031,0.027905703,0.032087199
1.684,0.033992844,0.035290328,0.095363727,0.027905199,0.03208626
1.688,0.033992441,0.035289656249999996,0.095363859,0.027905433593749997,0.032086093749999996
1.692,0.033992172,0.035287914,0.095362688,0.027906508,0.0320874
1.696,0.033991734,0.035287746093749996,0.095361312,0.027907412109374998,0.032086697
1.7,0.033992004,0.035288617187499996,0.095358664,0.027908552734374998,0.032086395
1.704,0.033991938,0.035288984,0.095354977,0.027908084,0.032086093749999996
1.708,0.033990996093749996,0.035287847656249996,0.095354578,0.027908015624999997,0.0320874
1.712,0.033990394531249996,0.035286773437499995,0.095352969,0.027907412109374998,0.032088607
1.716,0.033989723,0.035286371,0.095352164,0.027906138671874997,0.032088674
1.72,0.033990094,0.035285734374999995,0.095352094,0.027905602,0.032087869140624996
1.724,0.033990863,0.03528523,0.095350789,0.027904998046874997,0.032087535
1.728,0.033991902,0.035284996,0.095348977,0.027903992187499997,0.032085857421874996
1.732,0.03399207,0.03528409,0.095347836,0.027903725,0.03208435
1.736,0.033991871,0.035283285,0.095347031,0.027904093749999997,0.032084082031249996
1.74,0.033991133,0.035283922,0.095346359,0.027904865,0.032084584
1.744,0.03399073,0.035284762,0.095346328,0.027905099609374998,0.032086025
1.748,0.033990262,0.035283922,0.095346797,0.027904463,0.032086529
1.752,0.033988887,0.035283152,0.095346633,0.027904664062499997,0.03208673
1.756,0.033987879,0.035282715,0.09534757,0.027904427734374997,0.032086629
1.76,0.033987711,0.035281644531249996,0.095346867,0.027904328,0.032086295
1.764,0.033987645,0.035280671874999996,0.095345156,0.027904463,0.032086964843749996
1.768,0.033987578,0.035279699218749995,0.09534475,0.027904797,0.032087467
1.772,0.03398684,0.035279328124999995,0.095345289,0.027905938,0.032088641
1.776,0.033986539,0.035279195,0.09534482,0.027905400390624998,0.03208891
1.78,0.033987578,0.035279969,0.095344313,0.027903992187499997,0.032087703
1.784,0.033988214843749996,0.035280738,0.09534418,0.027903893,0.0320874
1.788,0.033987578,0.035281141,0.095344414,0.027903421874999997,0.032088674
1.792,0.033985633,0.035280300781249996,0.095343914,0.027902986328124997,0.032090217
1.796,0.033984156,0.035279867,0.095343313,0.027902316,0.032090484
1.8,0.033984059,0.035279164,0.095343609,0.027902283,0.032089715
1.804,0.033983754,0.035278558593749995,0.095343477,0.027901881,0.032089043
1.808,0.033982852,0.035278426,0.095343078,0.027902115,0.032089244
1.812,0.03398198,0.035279531249999996,0.095342805,0.027902785,0.032088307
1.816,0.033981711,0.035280234,0.095341664,0.027903490234374998,0.032087199
1.82,0.033981777,0.035280035,0.095339391,0.027903824218749998,0.032087132812499995
1.824,0.033981844,0.035280234,0.095338016,0.027903623,0.032087166
1.828,0.033981609,0.03527973,0.095337141,0.027903322,0.032087132812499995
1.832,0.033980203,0.035279429687499995,0.095337141,0.027903623,0.032085656
1.836,0.033979867,0.035280371,0.095337406,0.027904496093749998,0.032085053
1.84,0.033979664,0.035280203,0.095336703,0.027904496093749998,0.03208465
1.844,0.033979531,0.03527973,0.095337211,0.027904830078124998,0.032084283
1.848,0.033979398437499996,0.035279867,0.09533882,0.027904830078124998,0.03208502
1.852,0.033978492,0.035278895,0.095339555,0.027905469,0.032086193
1.856,0.033978324,0.035277789062499995,0.095338484,0.027904797,0.032086998046874995
1.86,0.033978828,0.035278055,0.095336469,0.027902451,0.032085557
1.864,0.033980167968749996,0.035279063,0.095334492,0.027900773,0.032082639
1.868,0.033980102,0.035278761718749996,0.095332852,0.027899098,0.032080428
1.872,0.033978594,0.035277957,0.095332383,0.027899064453124997,0.032081131
1.876,0.033978762,0.035277555,0.095331172,0.027898460937499998,0.032081131
1.88,0.033979063,0.035277219,0.09532993,0.027897188,0.032081434
1.884,0.033979664,0.035276313,0.095328656,0.027896347656249997,0.032081031249999996
1.888,0.033980738,0.035275339843749996,0.095327352,0.027896281,0.032080191
1.892,0.033979898437499996,0.035275207,0.095327484,0.027896951,0.032080461
1.896,0.033978996,0.035275473,0.095327586,0.027896482,0.032081332
1.9,0.033978492,0.035275574,0.095326984,0.027896314453124998,0.032081701
1.904,0.033977957,0.035275207,0.09532732,0.027897053,0.032083209
1.908,0.033977484,0.035274336,0.095326242,0.027897188,0.032084551
1.912,0.03397675,0.035273363,0.095326141,0.027896383,0.032084584
1.916,0.033976918,0.035273429687499996,0.09532732,0.02789551,0.032085121
1.92,0.033976582,0.035273226562499996,0.095328359,0.027895176,0.032085121
1.924,0.033975473,0.035272793,0.095327852,0.027895779,0.032085725
1.928,0.03397477,0.035272324,0.095327586,0.027895945,0.032084248
1.932,0.033973964843749996,0.035272289,0.095328188,0.027896248,0.032083443
1.936,0.033972625,0.035272156,0.095328758,0.027897287,0.03208435
1.94,0.033971988,0.035272488,0.095329164,0.027897455078124998,0.032084047
1.944,0.033972156249999996,0.035271754,0.095328594,0.02789665,0.032083611
1.948,0.033972824218749996,0.035271988,0.09532782,0.027896013671874997,0.032083209
1.952,0.033973461,0.035273226562499996,0.095327148,0.027895341796874997,0.032082839843749995
1.956,0.033973964843749996,0.035273965,0.095326109,0.027894437499999997,0.0320815
1.96,0.03397507,0.035273766,0.095325336,0.027893498,0.032081064453124995
1.964,0.033975543,0.035273664,0.095323828,0.027893633,0.032080662
1.968,0.033974402,0.035273832,0.095322555,0.0278939,0.032080963
1.972,0.033974434,0.035273629,0.095321219,0.027893296874999998,0.032080393
1.976,0.033974738,0.035274097656249996,0.095320609,0.02789333,0.032079354
1.98,0.033974,0.035273027,0.095320242,0.027893197,0.032079455
1.984,0.033972824218749996,0.035272422,0.095319437,0.027893498,0.032080359
1.988,0.033971688,0.035273664,0.095319773,0.027893833984374998,0.032080227
1.992,0.033972355,0.035274636718749995,0.095319234,0.027894035,0.032080761718749996
1.996,0.033973496,0.035274133,0.095313508,0.027893431640624997,0.032081734
2,0.033972758,0.035273863,0.095311328,0.027892928,0.032081266
2.004,0.033971652,0.035273863,0.095314141,0.027893296874999998,0.032079755859374996
2.008,0.033970949,0.035273363,0.095315852,0.027893431640624997,0.032079152
2.012,0.033970277,0.035272992,0.095317156,0.027893164,0.032078749999999996
2.016,0.033969473,0.035273262,0.095319,0.027894302734374998,0.03207865
2.02,0.033968637,0.035273262,0.095320578,0.027894572265624997,0.03207818
2.024,0.033967527,0.035274097656249996,0.095320812,0.027894035,0.032077209
2.028,0.033966289,0.035274199218749996,0.095321719,0.027894807,0.032077443
2.032,0.033965617,0.035273597656249996,0.095322219,0.027895845703124998,0.032077878906249996
2.036,0.033965082031249996,0.035273766,0.095320812,0.027895779,0.032077174
2.04,0.033965953,0.035274301,0.095318703,0.027895141,0.032075498
2.044,0.033966019531249995,0.035274031,0.095316422,0.027894102,0.032074393
2.048,0.033964813,0.035273293,0.095314344,0.027893398437499998,0.032074057
2.052,0.033963707,0.035273363,0.095314578,0.027893968749999998,0.03207315
2.056,0.033962367,0.035274336,0.095314406,0.027894269531249998,0.032072279
2.06,0.033961395,0.035274,0.095312367,0.027893768,0.032072816406249996
2.064,0.03396109,0.035272391,0.095310187,0.027893431640624997,0.032074627
2.068,0.033961527,0.03527125,0.095309148,0.027893431640624997,0.032075129
2.072,0.033960922,0.035270343749999995,0.095308641,0.027892561,0.032075633
2.076,0.03395948,0.035270008,0.095308609,0.027890984,0.032075867187499996
2.08,0.03395975,0.03526907,0.09530807,0.027889777343749998,0.03207523
2.084,0.033961563,0.035268633,0.095307906,0.027889039,0.032074123
2.088,0.033962668,0.03526907,0.095307734,0.027888604,0.032072213
2.092,0.033962398,0.035269472656249995,0.095306297,0.027887664062499998,0.032071877
2.096,0.033961895,0.035269605,0.095305625,0.027887564,0.032072783
2.1,0.033961058593749996,0.035269574218749995,0.095305695,0.027888537,0.032073486
2.104,0.033960555,0.035269472656249995,0.095305828,0.027889643,0.032075029
2.108,0.03395975,0.035268836,0.095304789,0.027890078,0.032076336
2.112,0.033958813,0.035268469,0.095304688,0.027889843749999997,0.032076203
2.116,0.03395918,0.035268668,0.095305391,0.027889141,0.03207533
2.12,0.033958645,0.035268836,0.095305797,0.027889708984374997,0.032075363
2.124,0.033958309,0.035269539,0.095305625,0.027889708984374997,0.032075699218749996
2.128,0.033957973,0.035269641,0.095305594,0.027889341796874998,0.032076168
2.132,0.033957636718749996,0.035268969,0.09530482,0.027888303,0.032076537
2.136,0.033956801,0.035268301,0.095303578,0.027887463,0.032077309
2.14,0.033956027,0.035267328,0.095302773,0.027887129,0.03207808
2.144,0.033955289,0.035266992,0.095301703,0.027886792968749997,0.032077845703124996
2.148,0.033955727,0.035267227,0.095301102,0.027887699,0.03207818
2.152,0.033956633,0.035267461,0.095300562,0.027887732,0.032078248
2.156,0.033957234,0.035266957,0.095299289,0.027887061,0.032077945
2.16,0.033958309,0.035267059,0.095299289,0.027886658203124998,0.032076906249999995
2.164,0.03395898,0.035267292968749996,0.095299688,0.027886727,0.032076771484374995
2.168,0.03395975,0.035266152343749996,0.095299289,0.027885418,0.032076738281249996
2.172,0.03396052,0.035265816,0.095298016,0.027883607421874998,0.032076973
2.176,0.033960758,0.035265785,0.095297313,0.027882938,0.032076738281249996
2.18,0.033960922,0.035265582,0.095297375,0.02788401,0.032075564
2.184,0.033961293,0.035265617,0.095297242,0.027884613281249998,0.032075564
2.188,0.033961563,0.035265852,0.095297313,0.027883876953124997,0.032076001953124995
2.192,0.033961863,0.035266188,0.095296141,0.02788334,0.032075801
2.196,0.033962902,0.035265953,0.095295297,0.027883273437499998,0.032075833984374996
2.2,0.033962434,0.035265652343749995,0.095294359,0.027882502,0.032077209
2.204,0.033960957031249996,0.03526575,0.09529382,0.02788267,0.032078314
2.208,0.033960992,0.035265551,0.095293289,0.027883842,0.032078582
2.212,0.033960387,0.035266188,0.095293352,0.027884210937499997,0.032077845703124996
2.216,0.033960621,0.035266992,0.095293156,0.027884781249999997,0.032076973
2.22,0.033961160156249996,0.035266488,0.095292586,0.027885351562499997,0.032077543
2.224,0.033960488,0.035266387,0.095292883,0.027885688,0.032077878906249996
2.228,0.033960422,0.035266289,0.09529275,0.027885721,0.032077275
2.232,0.03396109,0.035266859,0.095292883,0.027885652343749998,0.032077443
2.236,0.033961324,0.035267328,0.095292078,0.027886324218749998,0.032077477
2.24,0.03396059,0.035267664062499995,0.095289664,0.027886156,0.032077074
2.244,0.03395948,0.035267262,0.095288023,0.027886624999999998,0.032077711
2.248,0.033959012,0.035266457,0.095287117,0.027886525,0.032079656
2.252,0.033959078,0.035267191406249995,0.095285008,0.027885451,0.032079824
2.256,0.033959984,0.035267828,0.095279977,0.027885117,0.032078917968749995
2.26,0.033960891,0.035267059,0.095277867,0.027884412,0.032077576
2.264,0.033961226562499995,0.035266656,0.095278469,0.027884379,0.032076236
2.268,0.033961258,0.035266691,0.095278938,0.027885183593749998,0.03207657
2.272,0.033961492,0.035265918,0.095279305,0.027884949,0.032076873046874996
2.276,0.033961726562499996,0.035265348,0.095279375,0.027884715,0.032075900390624995
2.28,0.033961965,0.03526575,0.095279641,0.027884244,0.032075699218749996
2.284,0.033961293,0.035266555,0.095280578,0.027882703124999998,0.032075297
2.288,0.033960152,0.035266789,0.095281922,0.027882803,0.032074759765624995
2.292,0.033959516,0.03526773,0.095283766,0.027884445,0.032073889
2.296,0.033958309,0.035267898,0.095284336,0.027885048828124998,0.032073822265624996
2.3,0.033957035156249996,0.03526823,0.095285406,0.027885955,0.032074627
2.304,0.033957636718749996,0.035268164062499996,0.095285773,0.027886525,0.032075363
2.308,0.033958207,0.035267828,0.0952845,0.027885888671874998,0.032076168
2.312,0.033959215,0.035267426,0.095284805,0.027885854,0.032076102
2.316,0.033959551,0.03526773,0.095285242,0.027887463,0.032076336
2.32,0.033958879,0.035267996,0.095284938,0.027888033,0.032077041
2.324,0.033958309,0.035269004,0.095285141,0.027888303,0.032076906249999995
2.328,0.033959414,0.035269406249999996,0.095284641,0.027887228515624998,0.032076672
2.332,0.033959113,0.03526823,0.09528407,0.027885988,0.032076672
2.336,0.033957402,0.035267965,0.095284367,0.027886021,0.032077174
2.34,0.033957336,0.035268469,0.095284406,0.027886357421874997,0.032077074
2.344,0.03395757,0.035268703124999995,0.095283398,0.02788743,0.032077979
2.348,0.033958007812499996,0.03526793,0.095282289,0.027887699,0.03208083
2.352,0.033958242,0.035266824,0.095281148,0.027888102,0.03208368
2.356,0.033958242,0.035265617,0.095280414,0.027887933593749997,0.03208502
2.36,0.033958477,0.035265551,0.09528125,0.027887228515624998,0.032083176
2.364,0.033958141,0.035266891,0.09528343,0.02788857,0.032081434
2.368,0.033956531,0.035267227,0.095284266,0.027889508,0.032082572
2.372,0.03395566,0.03526823,0.095285445,0.027889141,0.032083611
2.376,0.033955457,0.035269035156249996,0.095286078,0.027888537,0.032082707
2.38,0.033955594,0.035269304687499996,0.095287453,0.027888267578124997,0.032080761718749996
2.384,0.033955426,0.035269203124999995,0.095288055,0.027889039,0.032079923828124995
2.388,0.033954957,0.035268668,0.095288023,0.027889979,0.032079755859374996
2.392,0.033954789,0.035267797,0.09528668,0.027890146,0.032079656
2.396,0.033955124999999996,0.035267262,0.09528507,0.027889174,0.032079455
2.4,0.033955426,0.035266691,0.095284164,0.027887699,0.032078684
2.404,0.033955691406249995,0.035266824,0.09528293,0.027886792968749997,0.032078717
2.408,0.033956262,0.035267797,0.095282156,0.027886256,0.032078884765624996
2.412,0.033956801,0.03526934,0.095280984,0.027885351562499997,0.032078984
2.416,0.033956297,0.035270313,0.095279336,0.027884682,0.032079186
2.42,0.033956465,0.035269707,0.095277531,0.02788448,0.032078516
2.424,0.033956699,0.035268633,0.095276555,0.027884244,0.032077477
2.428,0.033956801,0.035268301,0.095276789,0.027885285,0.032076471
2.432,0.033956262,0.03526907,0.095275352,0.027885451,0.032075900390624995
2.436,0.033953882812499996,0.035269641,0.09527468,0.027885183593749998,0.032076839843749996
2.44,0.033953348,0.035269675781249996,0.095275047,0.027886021,0.032077611
2.444,0.033952977,0.035268668,0.095274883,0.027886826,0.032078215
2.448,0.033953445,0.035268602,0.095275414,0.027887732,0.032078113
2.452,0.033954387,0.035268734,0.095275383,0.027888703124999997,0.03207808
2.456,0.033955727,0.035268398,0.09527518,0.027888804687499998,0.032077611
2.46,0.033956832,0.035268801,0.095276055,0.027888234374999998,0.032076839843749996
2.464,0.033957469,0.035267965,0.095275078,0.027887463,0.032078449
2.468,0.033957504,0.035267562499999995,0.095273234,0.027886894531249998,0.032079119
2.472,0.033957102,0.035268566,0.095272266,0.027886291,0.032077912109374995
2.476,0.033957035156249996,0.035268668,0.09527243,0.027886357421874997,0.032076939
2.48,0.033956297,0.035269809,0.095272938,0.027886222656249997,0.032077678
2.484,0.033955762,0.03527041,0.095273273,0.027885787109374997,0.032077443
2.488,0.033956297,0.035271016,0.095273336,0.027886391,0.032077141
2.492,0.033955527,0.035271719,0.095273641,0.027886759765624998,0.032077443
2.496,0.033954723,0.035271046874999996,0.095273906,0.027887363281249997,0.032077611
2.5,0.033954051,0.035271316406249996,0.095273508,0.027888234374999998,0.03207751
2.504,0.033953547,0.035270914,0.095274844,0.027888904,0.03207818
2.508,0.033953613281249996,0.03527068,0.095276453,0.027889240234374998,0.032077678
2.512,0.033953781249999995,0.03527098,0.095277359,0.027889576,0.032077945
2.516,0.033953714843749996,0.035271754,0.095278102,0.027890146,0.032078281
2.52,0.033954117,0.035273328124999996,0.095278633,0.027890279296874997,0.032076839843749996
2.524,0.033955324,0.035273363,0.095279672,0.027890380859374998,0.032075732421874996
2.528,0.033957906249999996,0.035274,0.095277328,0.027890078,0.032073720703124996
2.532,0.033960051,0.035274367187499996,0.095273508,0.027889408,0.032071375
2.536,0.03396059,0.035274168,0.095273438,0.027887699,0.032071843749999995
2.54,0.033960085937499995,0.035273461,0.095273039,0.027885854,0.032072546874999996
2.544,0.033960019531249996,0.035273429687499996,0.095272766,0.027884547,0.032072582
2.548,0.033960355,0.035273129,0.095272766,0.027884345703124997,0.032073318
2.552,0.03396059,0.035272324,0.095272664,0.027883842,0.032073889
2.556,0.033960387,0.035271214843749996,0.095271328,0.027882434,0.032074357
2.56,0.033958609,0.035270109,0.095268477,0.027881529,0.032074828124999996
2.564,0.033957539,0.035268566,0.095266133,0.027881628906249997,0.032075633
2.568,0.033957136718749996,0.035266859,0.095262375,0.027881328,0.032076102
2.572,0.033956699,0.035265984,0.095258516,0.027880589843749998,0.032075432
2.576,0.033956262,0.035265449,0.095255234,0.027880926,0.032075129
2.58,0.033955624999999996,0.035265953,0.095253125,0.027880992,0.032074861328124996
2.584,0.033955324,0.03526659,0.095251812,0.027879518,0.032073955
2.588,0.033954117,0.035266121,0.095250773,0.027879182,0.032073720703124996
2.592,0.033952875,0.035265852,0.095250711,0.027879013671874998,0.032073588
2.596,0.033951402,0.03526602,0.095251211,0.027879887,0.032074225
2.6,0.033950867,0.035266824,0.095251984,0.027881025390624998,0.032073720703124996
2.604,0.033949559,0.035266457,0.095252688,0.02788183,0.03207248
2.608,0.033948718749999995,0.035266723,0.09525282,0.027883072,0.032072045
2.612,0.033949223,0.035266758,0.09525175,0.027881898,0.032072111
2.616,0.033949960937499996,0.035266457,0.095251547,0.027880859374999997,0.032071105
2.62,0.033951101562499995,0.03526716,0.095251516,0.027880188,0.032070201
2.624,0.033951031,0.035266957,0.09525007,0.027878847656249997,0.032070336
2.628,0.033950496,0.035266723,0.095249469,0.027877439,0.032070336
2.632,0.033950531,0.035266723,0.095248227,0.027877506,0.032069463
2.636,0.033950898,0.035266957,0.095245914,0.027877808593749998,0.032069496
2.64,0.03395043,0.035266926,0.095243164,0.027877673828124998,0.032069697265624995
2.644,0.033949859374999995,0.035266457,0.095242055,0.027877103515624998,0.032069027
2.648,0.033949089843749995,0.035265617,0.095241383,0.027876434,0.032068691406249995
2.652,0.033948921874999996,0.035265617,0.095240148,0.027876199218749998,0.032068357
2.656,0.033949188,0.03526602,0.09523968,0.027876467,0.032068759765624996
2.66,0.033949355,0.035265887,0.095237969,0.027876802734374997,0.032069363
2.664,0.033948586,0.035264277,0.095234984,0.0278764,0.03207
2.668,0.033947344,0.035263438,0.095232297,0.027876434,0.032068961
2.672,0.033947176,0.035262969,0.095230656,0.0278765,0.032068424
2.676,0.033947043,0.035261727,0.095230359,0.027876097656249998,0.032068592
2.68,0.033947379,0.035261762,0.095230523,0.027875560546874997,0.032068324
2.684,0.033946574,0.035261797,0.095230758,0.027875896,0.032067352
2.688,0.033945801,0.035262031,0.095230859,0.027876164,0.032066848
2.692,0.033945801,0.035262164,0.095231195,0.027875962890624998,0.032066244
2.696,0.03394493,0.035262195,0.095231867,0.027874791015624997,0.032065574
2.7,0.033944328,0.035261797,0.095232031,0.027874891,0.032064869
2.704,0.033943691,0.035262128906249995,0.095232102,0.027875124999999997,0.032065004
2.708,0.03394332,0.035261960937499996,0.095232805,0.027874824,0.032065238
2.712,0.033943223,0.035261762,0.095231797,0.027874187499999998,0.032064199
2.716,0.03394282,0.035261960937499996,0.095230125,0.027873650390624997,0.032062893
2.72,0.033942082,0.035260922,0.095228914,0.027873181640624998,0.032063428
2.724,0.033941242,0.035259949218749996,0.095227406,0.027872879,0.032063628906249995
2.728,0.033941141,0.035259918,0.095226906,0.027873482421874998,0.03206383
2.732,0.033941777,0.035259918,0.0952265,0.027873416,0.032063898
2.736,0.033941211,0.035258777,0.095224922,0.027873482421874998,0.032062893
2.74,0.033939063,0.035258578124999995,0.095223281,0.027873482421874998,0.032061685546874996
2.744,0.033937688,0.035258742,0.095223148,0.027873785156249997,0.032060813
2.748,0.033936648,0.035258645,0.095223383,0.02787432,0.032060544921874996
2.752,0.033936148,0.035258711,0.095222742,0.027875193359374998,0.03206165
2.756,0.033936551,0.035259313,0.095221977,0.027876232421874998,0.032062088
2.76,0.033936851562499995,0.03525948,0.095221203,0.027875762,0.032063025
2.764,0.03393759,0.035258207031249995,0.095219523,0.027874220703124997,0.032063797
2.768,0.033937957,0.035257637,0.095218055,0.027873146,0.032064736328124996
2.772,0.033936851562499995,0.035257167968749996,0.095216844,0.027872711,0.032066277
2.776,0.033936516,0.03525623,0.095215672,0.027872443,0.032067685546874995
2.78,0.03393541,0.035256094,0.095214094,0.027872678,0.032068088
2.784,0.033934671874999996,0.035256801,0.095214164,0.02787298,0.032067619140624996
2.788,0.033934671874999996,0.035256934,0.095215133,0.027872813,0.032067283
2.792,0.033934137,0.035256598,0.095215406,0.027872141,0.032068223
2.796,0.033932929687499995,0.035255324,0.095215203,0.027871807,0.032069262
2.8,0.033932727,0.035255223,0.095215031,0.027871404,0.032069463
2.804,0.033932761718749996,0.035255828,0.095216141,0.027871438,0.032069262
2.808,0.033932390624999996,0.035255925781249996,0.095215703,0.027872377,0.032070135
2.812,0.033932055,0.035255925781249996,0.095214359,0.027872542968749997,0.032071843749999995
2.816,0.033932023,0.035255625,0.095212992,0.027872309,0.03207124
2.82,0.033932828,0.035255359374999996,0.095211984,0.027872342,0.032069765624999996
2.824,0.033933063,0.035255996,0.095210242,0.027872242,0.032068691406249995
2.828,0.033933832,0.035255559,0.095207961,0.027870801,0.032066547
2.832,0.033933898,0.035255257812499996,0.095206016,0.027869123,0.03206383
2.836,0.033934,0.035255925781249996,0.095205141,0.027868152343749997,0.03206316
2.84,0.033933664,0.035256027343749996,0.095204141,0.027867447265624998,0.032063328
2.844,0.033933664,0.03525623,0.095203938,0.02786785,0.032064199
2.848,0.033933766,0.035256633,0.095203031,0.027868789,0.032063998
2.852,0.033933766,0.035257,0.095202297,0.027868789,0.032063697265624996
2.856,0.033932761718749996,0.035256664,0.095202492,0.027868654,0.032063428
2.86,0.033932324,0.03525643,0.095201586,0.027868285,0.032062893
2.864,0.033933164,0.035256598,0.095200617,0.027868354,0.032062455078124996
2.868,0.033933934,0.035256832,0.095196227,0.027868285,0.032062422
2.872,0.03393323,0.035255762,0.095189953,0.02786785,0.032062857
2.876,0.033933332,0.03525482,0.095188383,0.027867113281249998,0.032062791
2.88,0.033933094,0.035254484,0.095186367,0.027866811,0.032061617187499995
2.884,0.033932895,0.035254418,0.095184828,0.027866811,0.032060813
2.888,0.033933261718749996,0.035254082,0.095183953,0.027866342,0.032059137
2.892,0.033931722656249996,0.035253816,0.095184258,0.027865637,0.032058734
2.896,0.033931586,0.035253379,0.095184359,0.027864999999999997,0.032058701171874995
2.9,0.033931586,0.03525291,0.095183687,0.027864297,0.032058197
2.904,0.033930480468749996,0.035251938,0.095183414,0.027863895,0.03205907
2.908,0.033928906,0.035251066406249996,0.095182078,0.027862922,0.032060008
2.912,0.033928066,0.03525157,0.095181336,0.027862552734374997,0.032059875
2.916,0.033928301,0.035251,0.095182414,0.027863223,0.032058936
2.92,0.033928102,0.035250797,0.095183984,0.027864631,0.032057896
2.924,0.033927699218749996,0.035250664,0.095184687,0.027865066,0.032058434
2.928,0.033927563,0.035249559,0.095183719,0.027864934,0.032057963
2.932,0.033927027,0.03524902,0.095183484,0.027865101562499998,0.032058232
2.936,0.033926691,0.035249422,0.095183414,0.027865303,0.032058434
2.94,0.033926895,0.03525073,0.095184359,0.027865234,0.032058164
2.944,0.033926457031249996,0.03525073,0.095184656,0.02786433,0.032058031
2.948,0.033927063,0.035250898,0.095185023,0.027863826171874998,0.032057896
2.952,0.033927867187499995,0.035251637,0.095185063,0.027862889,0.032057461
2.956,0.033928102,0.03525177,0.095185227,0.027862451,0.032056957
2.96,0.033927898,0.035251168,0.095185125,0.027862384765624998,0.032056221
2.964,0.033927465,0.035251367,0.095184828,0.027862217,0.032055449
2.968,0.033925687499999996,0.035253042968749995,0.095183078,0.027863793,0.032054846
2.972,0.033923574218749995,0.035253445,0.095182312,0.027866309,0.032055885
2.976,0.033922636718749996,0.035253144531249996,0.095181711,0.027867615,0.032057795
2.98,0.033921695,0.035252141,0.095180937,0.027868050781249997,0.032059238
2.984,0.033921664062499995,0.035251637,0.095180063,0.027867951,0.032060544921874996
2.988,0.03392193,0.035251301,0.095178789,0.027867615,0.032061082
2.992,0.03392173,0.035250129,0.095177617,0.027866207,0.032061082
2.996,0.033923371,0.035249523,0.095176344,0.027864564453124997,0.032060512
3,0.033924883,0.03524852,0.095173625,0.027863558593749997,0.032060611328124995
3.004,0.033924714843749995,0.035248117,0.095171578,0.027863255859374998,0.032061248
3.008,0.033924277343749996,0.035248383,0.09517125,0.027862721,0.032060779
3.012,0.033924008,0.03524852,0.095171617,0.027862922,0.032060712890624996
3.016,0.03392448,0.035249222656249996,0.095171578,0.027862853515624997,0.032060076
3.02,0.033923773,0.035249625,0.095170445,0.027861883,0.03205907
3.024,0.033923203124999995,0.03524902,0.095170273,0.027861748,0.032058299
3.028,0.033923371,0.035249121093749995,0.09517007,0.027861916,0.032057527343749996
3.032,0.033923172,0.03524909,0.095169906,0.027861814453124998,0.032056891
3.036,0.033923172,0.035250563,0.09517068,0.02786215,0.032056824
3.04,0.033922535156249996,0.035251031249999995,0.095171852,0.027862083984374997,0.032057227
3.044,0.03392116,0.035250461,0.095173391,0.027861480468749998,0.032058064
3.048,0.033920656,0.035249793,0.095173258,0.02786158,0.032058801
3.052,0.03392059,0.035249222656249996,0.095173695,0.027862721,0.032059002
3.056,0.033920824,0.035249457,0.095173828,0.027862787,0.032058566406249996
3.06,0.033920523437499996,0.03524959,0.095174133,0.027863055,0.032058398437499996
3.064,0.033921328,0.03525043,0.095173695,0.027863390624999998,0.032057560546874996
3.068,0.033921695,0.03525073,0.09517282,0.027862820312499998,0.032056287
3.072,0.033921797,0.035250059,0.095172187,0.027862083984374997,0.032055146
3.076,0.033922332031249995,0.035250531,0.095170406,0.027861547,0.032054711
3.08,0.033923605,0.035251132812499995,0.09516793,0.027861313,0.032054041
3.084,0.033923773,0.035250195312499996,0.09516682,0.027860976562499997,0.032054174
3.088,0.033923539,0.035250227,0.095165414,0.027860406249999997,0.032055281
3.092,0.033923004,0.035250363281249995,0.095164875,0.027860105,0.032056152
3.096,0.0339225,0.03525043,0.095164672,0.027859703,0.032056521484374996
3.1,0.033922265624999996,0.035250699,0.095163672,0.027860439,0.032055717
3.104,0.033923809,0.03525073,0.095162969,0.027860172,0.032054611328124996
3.108,0.033925214843749996,0.035250363281249995,0.095162867,0.027859871,0.032054678
3.112,0.033925617,0.035250531,0.095161891,0.027859937499999998,0.032055548828124995
3.116,0.033926121,0.035250129,0.095160516,0.027859871,0.032055818
3.12,0.033925785,0.035249961,0.095159273,0.027859871,0.032056623046874996
3.124,0.033925687499999996,0.035250129,0.09515807,0.027860205,0.032056455
3.128,0.033925617,0.035248988,0.095156828,0.027860037,0.032057392578124996
3.132,0.033924746,0.035248652,0.095156023,0.027859635,0.032058232
3.136,0.033924949,0.035248418,0.09515643,0.02785967,0.032058031
3.14,0.033924813,0.035248851562499996,0.095155922,0.027859367187499998,0.032056521484374996
3.144,0.033924313,0.035249188,0.095155156,0.027859904296874998,0.032056422
3.148,0.033925551,0.035249656,0.095155289,0.027861412109374997,0.032056455
3.152,0.033926289,0.035250461,0.095154484,0.027861949218749998,0.032055047
3.156,0.033926187499999996,0.035251402,0.095154688,0.027861412109374997,0.032054041
3.16,0.033925617,0.035251973,0.095154953,0.027862083984374997,0.032054141
3.164,0.033924746,0.035251703,0.09515475,0.027863021,0.032054141
3.168,0.033925383,0.035251637,0.095154984,0.027863291,0.032054309
3.172,0.033925785,0.035251367,0.095154312,0.027861883,0.032055146
3.176,0.033925383,0.035251301,0.095152977,0.027861043,0.032056723
3.18,0.033925652,0.035251738,0.095150492,0.02786034,0.032056857
3.184,0.033926258,0.035251535,0.095143992,0.027859635,0.032056086
3.188,0.033925855,0.035251,0.095143586,0.027859703,0.032054912
3.192,0.033925551,0.035251469,0.095143687,0.027860373046874998,0.032054879
3.196,0.033925453,0.035251871,0.095143453,0.027859904296874998,0.032055014
3.2,0.033925051,0.035251703,0.095144023,0.027860439,0.032053873
3.204,0.033924008,0.035252238,0.095145125,0.027860474609374998,0.032053369140624996
3.208,0.033923105,0.035252742,0.095145867,0.027860238281249998,0.032053537109374995
3.212,0.033921996,0.035251805,0.095145664,0.027860373046874998,0.032054342
3.216,0.033920824,0.035250395,0.095145695,0.027860541,0.032055113
3.22,0.033920789,0.035250598,0.095146102,0.027860574,0.032054678
3.224,0.033921292968749996,0.035250227,0.095145125,0.027860541,0.032053939
3.228,0.033921262,0.035249324218749996,0.0951455,0.027860808593749998,0.032054342
3.232,0.033921094,0.035248851562499996,0.095145797,0.027861279,0.032055113
3.236,0.033920253906249996,0.035248617,0.095145898,0.027862285,0.032055717
3.24,0.033919684,0.035248586,0.095146133,0.027862652,0.032055582
3.244,0.03391975,0.035249289,0.095146266,0.027863156,0.032054008
3.248,0.033919585937499996,0.035250027,0.09514607,0.027863255859374998,0.032054509765624996
3.252,0.033919215,0.035250797,0.095146102,0.027862451,0.032054678
3.256,0.033919449,0.035251367,0.095146133,0.027861982421874997,0.032053906
3.26,0.033918445,0.035251469,0.095145695,0.027862652,0.032054542968749995
3.264,0.033917605,0.035252039,0.095145695,0.027862754,0.032054879
3.268,0.033918109,0.035253144531249996,0.095146703,0.027862451,0.032054074
3.272,0.033919418,0.03525368,0.095145867,0.027861613,0.032053705
3.276,0.033919887,0.035254082,0.095145195,0.027861715,0.032053672
3.28,0.033919215,0.035253613,0.095145766,0.027862016,0.032054979
3.284,0.033917906,0.035252707,0.095146305,0.027862787,0.032056623046874996
3.288,0.033916699,0.035252742,0.095146641,0.027863055,0.032057729
3.292,0.033916297,0.035253914062499996,0.095146203,0.027862083984374997,0.032057762
3.296,0.033916063,0.035255223,0.095146203,0.027861480468749998,0.032057695312499995
3.3,0.033917172,0.035255425781249995,0.09514543,0.027860307,0.032056789
3.304,0.033917672,0.035254484,0.095143453,0.027859133,0.03205632
3.308,0.033918043,0.035255289,0.09514268,0.027858328124999998,0.032055380859374996
3.312,0.033919113281249996,0.035255895,0.095141844,0.027859031,0.032054443
3.316,0.033918914,0.035255391,0.09514218,0.027859031,0.032053605468749996
3.32,0.033918813,0.035255054687499995,0.095141945,0.0278591,0.032053939
3.324,0.033918813,0.03525425,0.095140906,0.027859133,0.032054879
3.328,0.033918645,0.035252406,0.095139328,0.027858193,0.032054912
3.332,0.033919016,0.035251738,0.095138961,0.027858664,0.032054209
3.336,0.033918410156249995,0.035251902343749995,0.09513893,0.027859501953124997,0.032053470703124996
3.34,0.033918511718749995,0.035250964843749996,0.095137883,0.027858226562499998,0.032052398
3.344,0.033918211,0.035250563,0.095136008,0.027857623,0.032052029
3.348,0.033917809,0.035250664,0.095135203,0.027857791015624998,0.03205176
3.352,0.033917406,0.03525073,0.095135203,0.027858361328124998,0.032051324218749996
3.356,0.033917238,0.035249793,0.095135172,0.027857791015624998,0.032051828
3.36,0.03391677,0.035248586,0.095133461,0.027858193,0.032053605468749996
3.364,0.033916633,0.035248047,0.095131281,0.027857691,0.032054041
3.368,0.033916867,0.035248016,0.095130242,0.027857490234374997,0.032053873
3.372,0.033916836,0.035248047,0.095129336,0.027858295,0.032055416
3.376,0.033917305,0.03524768,0.095128703,0.027859232421874998,0.032055348
3.38,0.033917472656249996,0.035247848,0.095128195,0.02786034,0.032054879
3.384,0.03391707,0.03524825,0.095128195,0.027860943359374998,0.032056656249999996
3.388,0.033917336,0.035248586,0.095128266,0.02786101,0.032057729
3.392,0.033917238,0.035248617,0.095127125,0.027859937499999998,0.032057560546874996
3.396,0.033917472656249996,0.035248215,0.095125445,0.027859434,0.032057896
3.4,0.033917773,0.035247210937499995,0.095125148,0.027859904296874998,0.032058232
3.404,0.033917406,0.035247578,0.09512575,0.027860877,0.03205907
3.408,0.033916128906249995,0.035248449,0.095127188,0.027862249999999998,0.032060712890624996
3.412,0.033914824,0.035248617,0.095128836,0.027863558593749997,0.03206135
3.416,0.033914387,0.035249254,0.095129203,0.027863457,0.032060646
3.42,0.033914723,0.03525073,0.09512957,0.027863928,0.032059473
3.424,0.033915089843749996,0.035252141,0.095129367,0.027864564453124997,0.032059104
3.428,0.033914688,0.035252141,0.095128602,0.027864061,0.032058801
3.432,0.033915191406249996,0.035251902343749995,0.095128602,0.027863994140624997,0.032059473
3.436,0.033915324,0.035251535,0.095128164,0.027864429687499997,0.032060209
3.44,0.033914188,0.035251102,0.095127188,0.027864195,0.032061182
3.444,0.033914387,0.035251703,0.095127328,0.027863727,0.032062254
3.448,0.033915023,0.035252574,0.095127391,0.027863089843749998,0.032062824
3.452,0.033915594,0.035253042968749995,0.09512582,0.027862955078124998,0.032062992
3.456,0.033916164,0.035253379,0.095121391,0.027863423828124997,0.032063595703124996
3.46,0.033916499999999995,0.035253715,0.095117367,0.027864027,0.032063662
3.464,0.033916902,0.035252742,0.095116766,0.027863558593749997,0.032062523
3.468,0.033916801,0.035252473,0.095116328,0.027863089843749998,0.032060578124999996
3.472,0.033916566,0.035252374999999996,0.09511643,0.027863357,0.032059572265624996
3.476,0.033916063,0.03525157,0.095114687,0.027862820312499998,0.032059104
3.48,0.033915863,0.035251703,0.095114281,0.027862049,0.032059875
3.484,0.033916164,0.035251805,0.09511375,0.027860238281249998,0.032059037
3.488,0.033915996,0.035251805,0.095112438,0.027859031,0.032057428
3.492,0.033916098,0.035251805,0.095112844,0.027858295,0.032056623046874996
3.496,0.033916367,0.035251367,0.095111805,0.027857557,0.032056386718749996
3.5,0.033915895,0.035251199,0.095111398,0.027857389,0.032056554687499995
3.504,0.033915460937499996,0.03525177,0.095111938,0.027857824218749997,0.032056354
3.508,0.033915125,0.035252207031249996,0.095111469,0.027857389,0.032055951
3.512,0.033914688,0.035252141,0.095110258,0.027856349609374997,0.03205575
3.516,0.033914688,0.035251738,0.095109289,0.027855746093749998,0.032054576
3.52,0.033915460937499996,0.03525177,0.09510882,0.027855175781249998,0.032053369140624996
3.524,0.033915828,0.035252543,0.095109188,0.027854941,0.032054041
3.528,0.033915527,0.035252641,0.095109352,0.027855343749999997,0.032054846
3.532,0.033915594,0.035252141,0.095108852,0.027855343749999997,0.032054074
3.536,0.033915562499999996,0.0352515,0.095109055,0.027856049,0.032053537109374995
3.54,0.033914387,0.035250227,0.095108078,0.027855947,0.032052732
3.544,0.033912777,0.035249121093749995,0.095106438,0.02785568,0.032053002
3.548,0.033911973,0.035248082031249996,0.095105062,0.027854941,0.032052599609374996
3.552,0.033911269531249996,0.035247176,0.095103758,0.027853533,0.032051795
3.556,0.033911066406249996,0.035246273437499996,0.095102047,0.027853467,0.032050822
3.56,0.033910598,0.035246371,0.095100031,0.027854238,0.032049682
3.564,0.033909961,0.035247078,0.095098828,0.027854304687499998,0.032049414062499997
3.568,0.03390882,0.035247176,0.095098258,0.027855009765624997,0.032050285
3.572,0.033908117187499996,0.035246839843749996,0.095096516,0.027855043,0.032051023
3.576,0.033907414062499995,0.035246707,0.095095141,0.027854439453124998,0.032051426
3.58,0.03390634,0.035245633,0.095094703,0.027853835937499998,0.032052531249999995
3.584,0.03390527,0.035245098,0.095094805,0.027853533,0.032053002
3.588,0.033904898,0.035245398,0.095095273,0.027854607,0.032053336
3.592,0.033905,0.035244996,0.095095305,0.027855343749999997,0.032053002
3.596,0.03390473,0.035245602,0.095095711,0.027855143,0.03205166
3.6,0.033905234374999996,0.035246203,0.095095406,0.02785598,0.032051357421874996
3.604,0.033905,0.035245800781249996,0.095094469,0.027855277,0.03205166
3.608,0.033905234374999996,0.035245800781249996,0.095094805,0.027853869140624998,0.032050621093749995
3.612,0.033906172,0.035246137,0.095094672,0.027853533,0.032049916
3.616,0.03390527,0.035245367,0.095093594,0.027852662,0.032049883
3.62,0.033904598,0.035245300781249995,0.095093633,0.027852158203124998,0.032048342
3.624,0.033904766,0.035245703,0.09509343,0.027851689453124998,0.032047
3.628,0.033904832,0.035245602,0.095092289,0.027851053,0.032046898
3.632,0.033905335937499996,0.035245871,0.095091789,0.027850348,0.032046061
3.636,0.033905402,0.035246070312499996,0.095090375,0.027849845703124997,0.032045793
3.64,0.033904934,0.035246203,0.095089977,0.027850918,0.032046462890624995
3.644,0.033905402,0.035246371,0.095090477,0.027851354,0.032046462890624995
3.648,0.033905434,0.035246203,0.095089875,0.027850314,0.032045558593749995
3.652,0.033904093749999996,0.035245098,0.095088633,0.027849945,0.032045793
3.656,0.033903492187499995,0.035244496,0.095087867,0.027850314,0.032045893
3.66,0.033902988,0.035243824,0.095087063,0.027849912,0.03204633
3.664,0.033902383,0.035243890624999996,0.095086523,0.027849611,0.032045625
3.668,0.033902484,0.035244426,0.095085078,0.02784817,0.032044586
3.672,0.033902051,0.035244191,0.095083203,0.027847833984374997,0.032044619
3.676,0.033902117,0.035243824,0.095081227,0.027846794921874998,0.03204415
3.68,0.033902215,0.035243355,0.095079984,0.027846828124999997,0.032043346
3.684,0.033901512,0.035242148437499995,0.095078875,0.027846224609374998,0.032043949
3.688,0.033901547,0.035242414,0.09507757,0.027846895,0.03204358
3.692,0.03390091,0.035242582,0.095077234,0.027847230468749998,0.032043313
3.696,0.033899132812499996,0.035242383,0.095076898,0.027847398,0.032043277343749996
3.7,0.033898261718749996,0.035241512,0.095077266,0.027848035,0.032043043
3.704,0.033898359,0.035241309,0.095077031,0.0278479,0.032043814
3.708,0.033898293,0.035240804687499995,0.095076531,0.027847633,0.032044854
3.712,0.033898293,0.035241141,0.095075594,0.0278476,0.032044451
3.716,0.033898863,0.03524141,0.095074516,0.027846191406249998,0.032043881
3.72,0.033899734,0.035240438,0.095073617,0.027844883,0.032041938
3.724,0.033899800781249996,0.035240504,0.095073516,0.027844179687499998,0.032040025
3.728,0.033899602,0.035240136718749995,0.095073008,0.027843308593749998,0.032039187499999996
3.732,0.033898629,0.035240203,0.095072203,0.027843642578124998,0.032039457031249996
3.736,0.033897890624999996,0.035239902,0.095071336,0.02784485,0.032039959
3.74,0.033897625,0.035239332,0.095069828,0.027845051,0.032040094
3.744,0.033897152,0.03523923,0.095068148,0.027844615234374998,0.032040295
3.748,0.033898461,0.035239063,0.095063891,0.027844984,0.032040428
3.752,0.033899300781249996,0.035238629,0.09505675,0.027845285,0.032040394531249995
3.756,0.033898863,0.035237488,0.095054906,0.027843039062499998,0.032041031
3.76,0.033899031249999996,0.035235777,0.095053836,0.027840525,0.032040025
3.764,0.033898598,0.035234605,0.095052727,0.027839084,0.032039926
3.768,0.033897488,0.035234773,0.095052594,0.027839015624999998,0.032040295
3.772,0.033896719,0.035235375,0.095052656,0.027839418,0.032040629
3.776,0.033895645,0.035234438,0.095051922,0.027839285156249997,0.032039725
3.78,0.033894035156249995,0.035233129,0.095051555,0.027839150390624998,0.032039289
3.784,0.033893934,0.035233765624999996,0.095052695,0.027840189453124997,0.032038416
3.788,0.033893734,0.035234504,0.095053836,0.027841865,0.03203674
3.792,0.033892726562499996,0.035235273,0.095054734,0.027841934,0.032036337890624995
3.796,0.033893164,0.035235309,0.095053969,0.02784324,0.03203741
3.8,0.033894004,0.035234738,0.095052258,0.027843273,0.032038014
3.804,0.03389427,0.035234605,0.095051016,0.0278419,0.032037779
3.808,0.033894102,0.035234972656249995,0.095049977,0.027841799,0.03203768
3.812,0.033893633,0.035235008,0.095049203,0.027841229,0.032036773
3.816,0.033893398,0.035234672,0.0950485,0.027840859,0.032035936
3.82,0.033892828124999996,0.035234469,0.095047867,0.027841195312499997,0.032035566
3.824,0.033892324,0.035234906249999996,0.095048867,0.027841462890624998,0.032034795
3.828,0.03389216,0.035235242,0.095049406,0.02784143,0.032034158203124996
3.832,0.033892058593749996,0.03523541,0.095048906,0.027840591796874998,0.032033588
3.836,0.033891824,0.035235742187499995,0.095048,0.027840759765624997,0.032033421874999995
3.84,0.033891355468749995,0.035235777,0.095047023,0.027840759765624997,0.03203399
3.844,0.033890917968749996,0.035234906249999996,0.095045617,0.027840021484374998,0.032033824
3.848,0.033890816406249996,0.035234738,0.095043773,0.02783925,0.032033857
3.852,0.033890148437499996,0.035233969,0.095040961,0.02783848,0.032033152343749996
3.856,0.033889242,0.035232926,0.09503918,0.027837742,0.032032416015624995
3.86,0.033888738,0.035233328,0.095037539,0.027837373,0.032032617
3.864,0.033888672,0.035233801,0.095036805,0.027836334,0.032032449
3.868,0.033889074218749995,0.035234469,0.095035664,0.027836568359374998,0.032032146484374996
3.872,0.033889344,0.035235477,0.095034891,0.027837072,0.032032146484374996
3.876,0.033889477,0.035234469,0.095033211,0.027836132812499997,0.032031777
3.88,0.033889074218749995,0.035233933593749996,0.095032445,0.02783573,0.032031813
3.884,0.033888972656249995,0.035233801,0.095031703,0.027835932,0.032033221
3.888,0.033888504,0.035232023437499996,0.095030461,0.0278364,0.032034227
3.892,0.033887398,0.035230277,0.095029563,0.027836267578124997,0.032035668
3.896,0.033886359,0.035229574,0.095028688,0.027835093749999998,0.032036506
3.9,0.033886324,0.035229105,0.095028086,0.027834893,0.032035668
3.904,0.033886828,0.035229473,0.095026945,0.027835027,0.032034662
3.908,0.033887398,0.035230113281249996,0.095026109,0.027834758,0.032034025
3.912,0.033887465,0.035229742187499996,0.095025867,0.027834424,0.032033320312499995
3.916,0.033887363,0.035228601562499996,0.095024398,0.02783449,0.032033789
3.92,0.033887027,0.035228266,0.095022281,0.027833550781249997,0.032034393
3.924,0.03388609,0.035228938,0.095022586,0.027833484,0.032034662
3.928,0.033885219,0.035228938,0.095023023,0.027833619140624998,0.032035265624999996
3.932,0.033883879,0.035228504,0.095023156,0.027834424,0.0320356
3.936,0.033884043,0.035228836,0.095023422,0.027834926,0.032036238
3.94,0.033884113281249996,0.035229441,0.095023086,0.02783543,0.032035902
3.944,0.033883945,0.035230348,0.095022617,0.027835664062499998,0.032035433593749996
3.948,0.033884547,0.03523152,0.095023023,0.027835328,0.032035433593749996
3.952,0.033883879,0.035232391,0.095023594,0.027835932,0.0320355
3.956,0.033883309,0.035232691406249995,0.095023258,0.027835932,0.032036238
3.96,0.033884648,0.035232023437499996,0.095022281,0.027834556640624997,0.032036773
3.964,0.033886124999999996,0.035230848,0.095021008,0.027833953124999998,0.0320356
3.968,0.033886223,0.035230348,0.095020242,0.027833182,0.032034762
3.972,0.033886894531249996,0.035230848,0.095019266,0.027831640624999997,0.032034729
3.976,0.03388723,0.035230379,0.095018727,0.027830634765624997,0.032033824
3.98,0.033887398,0.035229273,0.095018492,0.027829797,0.032032885
3.984,0.033887734,0.035228535,0.095018391,0.027828455078124998,0.032031777
3.988,0.033887297,0.035227898437499995,0.095018727,0.027829460937499998,0.032031410156249995
3.992,0.033886223,0.035227766,0.095018125,0.027830299,0.032032047
3.996,0.033885387,0.035228168,0.095017586,0.027830232,0.032033221
4,0.033885418,0.035228402,0.095017453,0.027830968749999997,0.032033588
4.004,0.033885652343749996,0.035228301,0.095017055,0.027831371093749998,0.032033086
4.008,0.033885219,0.035228434,0.095016852,0.027830701,0.032031846
4.012,0.033884882812499996,0.035228667968749995,0.095016414,0.027830902,0.032029967
4.016,0.033885050781249995,0.035228871093749996,0.095016219,0.027830566,0.032029699
4.02,0.033884918,0.03522907,0.095016688,0.027830533203124997,0.032030537
4.024,0.033884043,0.035229105,0.095017789,0.027830935546874998,0.032031576
4.028,0.033883172,0.035228769531249995,0.095018695,0.027832713,0.032032885
4.032,0.033882234,0.035228402,0.095018867,0.027833584,0.032034259765624996
4.036,0.033881531,0.035227664,0.095018063,0.027833148,0.032034158203124996
4.04,0.033881965,0.035228637,0.095017156,0.027832814,0.032032984
4.044,0.033881965,0.035229742187499996,0.095017422,0.02783268,0.032033221
4.048,0.033880523,0.035229207,0.095016883,0.027832210937499997,0.032034158203124996
4.052,0.033879785,0.03522907,0.095010984,0.027832814,0.032034393
4.056,0.033880188,0.035229742187499996,0.095006523,0.027832881,0.032033488
4.06,0.033878949218749996,0.035229777,0.0950075,0.027831941406249998,0.032031477
4.064,0.033876734,0.035230414,0.095008805,0.02783174,0.032030504
4.068,0.033876402,0.035230348,0.095009141,0.02783174,0.032031309
4.072,0.03387707,0.035228667968749995,0.095008,0.02783174,0.032033221
4.076,0.033876937499999996,0.035226895,0.095006258,0.027830701,0.03203302
4.08,0.033877910156249996,0.035226992,0.095004781,0.027829428,0.032032416015624995
4.084,0.033878746093749995,0.035226727,0.095003508,0.027829025390624998,0.03203208
4.088,0.033878746093749995,0.03522602,0.095002133,0.027828623046874997,0.03203302
4.092,0.033877539062499996,0.035225215,0.095000758,0.027828455078124998,0.032033555
4.096,0.033877707031249996,0.03522448,0.094999719,0.027828555,0.032034092
4.1,0.033878578124999996,0.035224078124999995,0.094998344,0.027828086,0.032034259765624996
4.104,0.033878145,0.035224547,0.094997102,0.027827852,0.032033824
4.108,0.033878012,0.035225418,0.094996266,0.027827482421874997,0.032033421874999995
4.112,0.033878313,0.035225148,0.094995664,0.027827617187499997,0.03203208
4.116,0.033877742,0.035225082,0.094995328,0.027828320312499998,0.032031979
4.12,0.033876535,0.035225586,0.094995727,0.027829428,0.032032783
4.124,0.033876066406249995,0.035225383,0.094995328,0.027830466796874998,0.032033555
4.128,0.033876566406249996,0.035225316,0.094994555,0.027831572,0.03203399
4.132,0.033877574,0.03522602,0.094994258,0.027832311,0.032034025
4.136,0.03387841,0.035226324,0.094992742,0.02783201,0.032033957
4.14,0.033878781,0.035225820312499996,0.094990398,0.027831809,0.032034527
4.144,0.03387898,0.03522498,0.094988555,0.027831037109374998,0.032035433593749996
4.148,0.033879718749999996,0.03522441,0.094986875,0.027831539062499997,0.032035768
4.152,0.033880589843749996,0.035224379,0.094986008,0.027831572,0.03203493
4.156,0.033880859374999996,0.035224883,0.094986008,0.027830734,0.032033287109374996
4.16,0.033880793,0.035224949218749996,0.094986578,0.027830968749999997,0.032032516
4.164,0.033880824,0.035224847656249995,0.094986508,0.027831472656249998,0.032032047
4.168,0.033880121,0.035224547,0.094987445,0.027831640624999997,0.03203208
4.172,0.033879586,0.035225082,0.094988055,0.027830968749999997,0.032031945
4.176,0.033878813,0.035224645,0.094988086,0.027831809,0.032032617
4.18,0.033878379,0.035224078124999995,0.094987312,0.027832042968749998,0.032033185546874995
4.184,0.033877910156249996,0.035223004,0.094986039,0.02783201,0.032033756
4.188,0.033878344,0.03522223,0.0949855,0.027830935546874998,0.032034292968749996
4.192,0.033878781,0.035222734,0.094985641,0.027830499999999998,0.032034594
4.196,0.033878211,0.035223172,0.094984766,0.027830332,0.032035701
4.2,0.03387841,0.035223473,0.094984266,0.027830299,0.032036807
4.204,0.033879184,0.035222835937499995,0.094983859,0.027829395,0.032037076
4.208,0.033880289,0.035222199,0.094982852,0.027828723,0.032036572
4.212,0.033880727,0.035222066406249995,0.094982219,0.027827951,0.032037713
4.216,0.033881227,0.035222734,0.094981852,0.027828287,0.032037914
4.22,0.033881128906249995,0.035222566406249996,0.094981047,0.027828455078124998,0.032037008
4.224,0.033881195,0.035223238,0.094980508,0.027828791,0.032036337890624995
4.228,0.033881363,0.03522498,0.094980813,0.027829561,0.032035668
4.232,0.033881628906249996,0.035225484,0.094980172,0.027830064453124997,0.03203493
4.236,0.033881027,0.035225352,0.094978969,0.027829962890624997,0.032034662
4.24,0.03388002,0.035225418,0.094977789,0.027829125,0.032033957
4.244,0.033879285,0.035225148,0.094976953,0.027828254,0.032033857
4.248,0.033879016,0.035224578124999996,0.094976789,0.027827951,0.03203493
4.252,0.033878078124999995,0.03522448,0.094976891,0.027828824,0.032035734
4.256,0.033877508,0.03522441,0.094977359,0.027829193359374997,0.032035265624999996
4.26,0.033877742,0.03522525,0.094978828,0.027829797,0.032035836
4.264,0.033877941,0.035226492,0.094979773,0.027829729,0.032036304687499996
4.268,0.033878176,0.035227363,0.094978828,0.027828957031249997,0.032035332031249995
4.272,0.033878746093749995,0.035227262,0.094977594,0.02782926,0.03203483
4.276,0.033878176,0.035226926,0.094977125,0.027830031249999998,0.032035902
4.28,0.033877574,0.035226895,0.094977625,0.027830836,0.032037175781249996
4.284,0.033878246,0.035225988281249995,0.094977156,0.027830668,0.032036875
4.288,0.033878043,0.035225551,0.094976148,0.027830131,0.032036271
4.292,0.033877105,0.035225047,0.094974805,0.027831271,0.032037244
4.296,0.033877371,0.035225586,0.094973438,0.027830869,0.03203768
4.3,0.033877441,0.035226324,0.094972867,0.027830836,0.032037043
4.304,0.033877105,0.035226757812499995,0.094972766,0.02783201,0.032037377
4.308,0.033878176,0.035227766,0.094972898,0.027831607421874998,0.032037611
4.312,0.033878781,0.035227262,0.094971289,0.027830499999999998,0.032037208984374996
4.316,0.033878613,0.035226223,0.094968539,0.027829962890624997,0.032036506
4.32,0.033878648,0.035225484,0.094967266,0.027830232,0.032036169921874996
4.324,0.033878246,0.035225148,0.094967,0.027830434,0.032036773
4.328,0.033878379,0.035225785,0.094967234,0.027830935546874998,0.032037947
4.332,0.033878512,0.035226757812499995,0.094967602,0.027831406,0.032038785
4.336,0.033878109,0.035226254,0.094966898,0.027830768,0.032039121
4.34,0.033878781,0.035225921874999996,0.094966094,0.027829359374999998,0.032039055
4.344,0.033879820312499996,0.035225586,0.094964648,0.027827951,0.032039256
4.348,0.033879285,0.035226188,0.094964617,0.027827917968749998,0.032039623
4.352,0.03387841,0.035226289,0.094965758,0.027829193359374997,0.032040797
4.356,0.033877305,0.035226727,0.094966727,0.027830199218749997,0.032041265624999996
4.36,0.033876332,0.035226559,0.094966961,0.027830803,0.0320411
4.364,0.033876332,0.035227227,0.094967766,0.027831908,0.032041400390624995
4.368,0.033876098,0.035228031,0.094967836,0.02783268,0.032041568
4.372,0.033875832,0.03522857,0.094967703,0.027833785,0.032041199
4.376,0.033875027343749996,0.035227934,0.094967469,0.027833719,0.032041333984374996
4.38,0.033874723,0.035227496,0.094966359,0.027833115234374997,0.032041467
4.384,0.033875059,0.035227934,0.094966289,0.027833316,0.032041166
4.388,0.033875664,0.035227999999999995,0.094964617,0.02783392,0.032041467
4.392,0.033876031,0.035227699,0.09495868,0.027832980468749997,0.032041938
4.396,0.033876098,0.035227328,0.094957773,0.027831875,0.032041736
4.4,0.033875832,0.035227460937499996,0.094957578,0.027831842,0.032041668
4.404,0.033875965,0.035227496,0.094956672,0.027831104,0.032042607
4.408,0.033876367,0.035226391,0.094954828,0.027831037109374998,0.032043748
4.412,0.033876667968749996,0.035226391,0.09495332,0.027831205078124997,0.032043313
4.416,0.033877172,0.035226926,0.094952414,0.027830634765624997,0.032042037
4.42,0.033878246,0.035226559,0.094951305,0.027829797,0.032040629
4.424,0.033878176,0.035226422,0.094951102,0.027828957031249997,0.032040295
4.428,0.033877508,0.035226895,0.094952344,0.027829395,0.032041501953124996
4.432,0.033877137,0.035226992,0.094953586,0.027830499999999998,0.032042775
4.436,0.033876234,0.03522602,0.094953852,0.027831371093749998,0.032043513671874996
4.44,0.033876402,0.035225082,0.094953719,0.027831809,0.032043613
4.444,0.033876602,0.035225148,0.094953719,0.027831137,0.032044417968749996
4.448,0.033875762,0.035225754,0.09495375,0.027831305,0.032044721
4.452,0.033875359,0.035226055,0.09495375,0.027831974609374997,0.03204633
4.456,0.033876535,0.035226727,0.094953414,0.027832713,0.032047738
4.46,0.033876769531249996,0.03522743,0.094953148,0.027833283,0.032048643
4.464,0.033876703,0.035227195,0.094952813,0.027833584,0.032048777
4.468,0.033876835937499995,0.035227094,0.094953281,0.027833082031249998,0.032047871
4.472,0.033876937499999996,0.035228031,0.094953984,0.027831809,0.032046429687499996
4.476,0.03387707,0.035227999999999995,0.094953516,0.027831439,0.032045994
4.48,0.033877641,0.035227496,0.09495375,0.027830434,0.032045423828124996
4.484,0.033877676,0.035227628906249996,0.094953352,0.027830098,0.032045357
4.488,0.033878109,0.035228301,0.094952984,0.027830232,0.032045658
4.492,0.033879184,0.035228667968749995,0.094952313,0.027831137,0.03204549
4.496,0.033879418,0.035228906,0.094952547,0.027832344,0.032046363
4.5,0.03387841,0.035227934,0.094951844,0.027832210937499997,0.032047300781249996
4.504,0.033878379,0.035227227,0.094951305,0.027831974609374997,0.032046732
4.508,0.033877742,0.035226793,0.094951406,0.027832779,0.032046396484374996
4.512,0.033877004,0.035227664,0.094951977,0.027833316,0.032046664
4.516,0.03387734,0.035229172,0.094952281,0.027832914,0.032046732
4.52,0.033877305,0.035230113281249996,0.094952852,0.027833148,0.032045994
4.524,0.033877609,0.035230445,0.094952813,0.027832646484374998,0.032045859
4.528,0.033877676,0.035229945,0.094952313,0.027832109374999997,0.032045859
4.532,0.033877406,0.035230078,0.094951641,0.027831674,0.032045928
4.536,0.0338765,0.035230882812499996,0.094951539,0.027831707,0.032045324
4.54,0.033876098,0.03523152,0.094951242,0.02783174,0.032044686
4.544,0.033875629,0.035231688,0.094951508,0.027831809,0.032044318
4.548,0.033874723,0.035231117,0.094951672,0.027832344,0.032044988
4.552,0.033873683593749995,0.035229273,0.094950766,0.027832412,0.032045928
4.556,0.033872746093749996,0.035228906,0.094949156,0.027833048828124998,0.032046061
4.56,0.033872813,0.035228601562499996,0.094947648,0.027832613281249998,0.032045324
4.564,0.033873652,0.035228266,0.094946211,0.027831908,0.032044552734374995
4.568,0.033873586,0.035228234,0.094944703,0.027831674,0.032044652
4.572,0.033873918,0.035227832031249996,0.094942719,0.027830668,0.032043781
4.576,0.033874891,0.035227328,0.094940477,0.027828723,0.032042674
4.58,0.033875898437499996,0.035227227,0.094938461,0.027827314453124998,0.032042709
4.584,0.033876098,0.035226422,0.094937086,0.027827182,0.032042641
4.588,0.033875293,0.03522552,0.094936289,0.027827013671874998,0.03204207
4.592,0.033874554687499996,0.035224043,0.09493632,0.02782775,0.032041501953124996
4.596,0.033873852,0.035223137,0.094936047,0.027828287,0.032041668
4.6,0.033873652,0.035222902,0.094935078,0.027827046874999997,0.032040529
4.604,0.033872879,0.035222469,0.094934977,0.027827416,0.032039422
4.608,0.033871941,0.035222066406249995,0.094933633,0.027827549,0.032040127
4.612,0.033871671874999995,0.035221898437499996,0.09493243,0.027826912109374997,0.032040127
4.616,0.033872043,0.035221796874999996,0.094931695,0.027825807,0.032040193
4.62,0.033872309,0.035221593749999995,0.094930688,0.027825605,0.03203959
4.624,0.03387241,0.035221359,0.094930016,0.027824398437499998,0.032038617
4.628,0.033872141,0.035221262,0.094930148,0.027824431640624998,0.032037848
4.632,0.033870969,0.035221828,0.09493075,0.027825203,0.032038082
4.636,0.033870464843749996,0.035222133,0.094931258,0.02782584,0.032038082
4.64,0.033870398,0.0352225,0.094930656,0.02782584,0.032037076
4.644,0.033869895,0.035222535,0.094930383,0.027826377,0.032036137
4.648,0.033869761718749995,0.03522173,0.094929914,0.027825068,0.032034996
4.652,0.033869461,0.035220723,0.094928375,0.027823962890624998,0.032033824
4.656,0.033868722656249996,0.035219886718749996,0.094928,0.027824096,0.032033152343749996
4.66,0.033868957,0.035220422,0.0949275,0.027824365,0.032033152343749996
4.664,0.033869023,0.03522116,0.094927367,0.027825001953124998,0.032033253906249996
4.668,0.033868219,0.035221059,0.094927164,0.027825470703124997,0.032033957
4.672,0.033867246,0.035220054687499995,0.094926664,0.027825672,0.032034695
4.676,0.033865707,0.035218309,0.094926461,0.027825437499999998,0.032035098
4.68,0.033865035,0.035218176,0.094926297,0.0278246,0.032034227
4.684,0.033864800781249996,0.035217336,0.094925828,0.027825102,0.032034527
4.688,0.033864129,0.035216699,0.094926227,0.02782517,0.032035734
4.692,0.033863996,0.035216835937499996,0.094926359,0.027823762,0.0320356
4.696,0.033863929687499995,0.035217168,0.094925828,0.027822756,0.032035398
4.7,0.033864297,0.035216531249999995,0.094922805,0.027821984374999997,0.032034594
4.704,0.033864632812499997,0.035216098,0.094915664,0.027822084,0.032035768
4.708,0.033864531249999996,0.035215359,0.094911375,0.027821146,0.032036707
4.712,0.033864566,0.035215059,0.09490993,0.027819804687499998,0.032036404
4.716,0.033864699218749995,0.035214922,0.094908727,0.027819234374999998,0.0320356
4.72,0.0338645,0.035214453124999996,0.09490782,0.027819135,0.032035398
4.724,0.033863492,0.035214254,0.094908187,0.027820107,0.032034561
4.728,0.033862789062499996,0.035214351562499996,0.094907453,0.027821045,0.032033689
4.732,0.033862249999999997,0.035214351562499996,0.09490618,0.027821984374999997,0.032033152343749996
4.736,0.033861348,0.03521402,0.094904867,0.027821515624999998,0.032032146484374996
4.74,0.033860844,0.035214789,0.094903297,0.027821447,0.032030705
4.744,0.033860507812499996,0.035215324218749997,0.094902023,0.027821984374999997,0.032030537
4.748,0.03386118,0.035215761718749995,0.094900445,0.027822018,0.032030236328124996
4.752,0.033862016,0.035216031,0.094899437,0.027821984374999997,0.032029063
4.756,0.033862754,0.03521593,0.094898766,0.027821314,0.032029297
4.76,0.033862519531249996,0.035215258,0.09489843,0.027820342,0.0320299
4.764,0.033862352,0.035214922,0.094897523,0.027820141,0.032029465
4.768,0.033863023,0.035215227,0.094897023,0.027819804687499998,0.032028525
4.772,0.033863527,0.035215461,0.094896391,0.027819168,0.032027051
4.776,0.03386309,0.035214855,0.094896219,0.027818664062499998,0.032026715
4.78,0.033861917968749995,0.035214422,0.094895078,0.027818096,0.032027117187499995
4.784,0.033861848,0.035213749999999995,0.094894211,0.02781776,0.032027957
4.788,0.033861917968749995,0.035212812499999996,0.094892898,0.027817390624999997,0.032028224609374996
4.792,0.033861378906249996,0.035210898,0.094891727,0.027817658203124998,0.032029564
4.796,0.033860675781249995,0.035209457031249995,0.094891523,0.027818900390624998,0.032031410156249995
4.8,0.033860273,0.035208789062499996,0.094890758,0.027819135,0.032032113281249996
4.804,0.033860574,0.035209156,0.094889617,0.027817927734374998,0.032031140624999996
4.808,0.033859672,0.035209289062499996,0.094888977,0.027817291,0.032030504
4.812,0.033859031,0.035209390624999996,0.094889578,0.027818162,0.032030134765624996
4.816,0.033858965,0.035209289062499996,0.094888437,0.027818228515624998,0.032030068
4.82,0.033858027,0.035208988,0.094888477,0.027817390624999997,0.032029867
4.824,0.033858027,0.035209156,0.094889047,0.027816820312499997,0.032028928
4.828,0.033858363,0.035209390624999996,0.094890148,0.027817357421874998,0.032028291
4.832,0.033857758,0.035209492,0.094891125,0.027817222656249998,0.032026783
4.836,0.03385682,0.035209390624999996,0.094890289,0.027816955,0.032025777
4.84,0.033854809,0.035209558593749996,0.094889719,0.027816117,0.032026514
4.844,0.033853,0.035209996,0.094890656,0.027816285,0.032025508
4.848,0.033853402,0.035210398,0.094891594,0.027816184,0.032023898
4.852,0.033854472656249995,0.035210531249999996,0.094891695,0.027815445,0.032022691
4.856,0.033853367,0.035210063,0.094891625,0.027815279,0.032022859
4.86,0.03385159,0.035209926,0.094890758,0.027814977,0.032022859
4.864,0.033851253906249996,0.035209558593749996,0.094890617,0.027815412,0.032022691
4.868,0.033852125,0.03520832,0.094890719,0.027816184,0.032023496
4.872,0.033852762,0.035207781,0.094889547,0.027816049,0.032022189453124995
4.876,0.033853301,0.035207480468749996,0.094888008,0.027814574,0.032020848
4.88,0.033852598,0.035206742,0.094886797,0.027812998,0.032019809
4.884,0.033852227,0.035206609374999996,0.094887203,0.027813333984374997,0.032019406
4.888,0.033852027,0.035206809,0.094886023,0.0278131,0.032020646
4.892,0.033852125,0.035205805,0.094884516,0.027811826171874998,0.032020982
4.896,0.033852359,0.035205133,0.094883852,0.027810953,0.032020379
4.9,0.033852598,0.035204863,0.094883109,0.027810785,0.032020613
4.904,0.033852027,0.035203156,0.094881867,0.027810686,0.032020916
4.908,0.033851523437499996,0.035201043,0.094881734,0.027810686,0.032020244
4.912,0.033851457,0.035198328,0.094881633,0.027810484,0.032020445
4.916,0.033851253906249996,0.035193902,0.094881398,0.027809746093749997,0.032020748
4.92,0.033851289,0.035191688,0.094882008,0.027809613,0.032020346
4.924,0.033851555,0.035189879,0.094882172,0.027809847656249997,0.032019977
4.928,0.03385159,0.035188535,0.094883711,0.027810016,0.032020111328124996
4.932,0.033852195,0.035187164,0.094884117,0.027810686,0.03202058
4.936,0.033851926,0.035185652,0.094883914,0.027811255859374998,0.032021352
4.94,0.033851758,0.035183574,0.094883781,0.027811859374999998,0.032020916
4.944,0.033851457,0.035181563,0.094885289,0.027813033,0.032020144531249996
4.948,0.033851355,0.035179953124999996,0.094887305,0.027813838,0.032019003906249996
4.952,0.033850852,0.035178512,0.094888305,0.027814876953124998,0.0320184
4.956,0.033850281249999996,0.035177070312499996,0.094888945,0.027814943,0.032017964843749996
4.96,0.033849613281249996,0.035175594,0.094888844,0.027813367,0.032015887
4.964,0.033849679687499995,0.035174457,0.094888406,0.027812262,0.032014277
4.968,0.033848809,0.035173082,0.094886867,0.027811457,0.032013605
4.972,0.033847668,0.035173113,0.094885594,0.027810283203124998,0.032013305
4.976,0.033847734,0.035173785,0.094885422,0.027809445,0.032012467
4.98,0.03384884,0.035175395,0.09488157,0.027810484,0.032011962890624995
4.984,0.033849746,0.035175832,0.094879289,0.027809746093749997,0.032010623
4.988,0.033849848,0.035175125,0.094880258,0.027808707031249998,0.032009617
4.992,0.033850281249999996,0.035174789062499996,0.094881164,0.027808169921874997,0.032009013671874996
4.996,0.033849679687499995,0.035175160156249996,0.094880492,0.027807232421874998,0.032009281
5,0.033848336,0.035175191,0.094880227,0.027807701171874998,0.032010756
5.004,0.033847398437499995,0.035173148437499996,0.094879453,0.027807802734374998,0.032012635
5.008,0.03384666,0.035169762,0.094878484,0.027808271484374997,0.032014611
5.012,0.033846492,0.035167281,0.094877141,0.027807835937499997,0.032016322
5.016,0.033845621,0.035165336,0.094874023,0.027807734,0.032017126953124996
5.02,0.033844617187499995,0.035162621,0.094871781,0.027807768,0.032017797
5.024,0.033844246093749995,0.035160875,0.094871344,0.027809244140624998,0.032017496
5.028,0.033843176,0.035159667968749996,0.094872211,0.027810853515624998,0.032016691
5.032,0.03384227,0.035157492,0.094872516,0.027810619,0.032017463
5.036,0.033842,0.035155008,0.094872016,0.027810016,0.032017697
5.04,0.033842234374999995,0.03515434,0.094871375,0.027809412109374997,0.032017496
5.044,0.033842371,0.035154406,0.094870875,0.027809578124999998,0.032017295
5.048,0.033843609,0.035154874999999995,0.094870875,0.027809377,0.032016958984374996
5.052,0.033845386718749995,0.035155847656249996,0.094870266,0.027807936,0.032016691
5.056,0.033846328,0.035155813,0.094868562,0.027806461,0.032016958984374996
5.06,0.033846059,0.03515598,0.094866516,0.027805992,0.032017865
5.064,0.033844718749999995,0.035156316,0.094866484,0.027805824218749997,0.032018132812499996
5.068,0.033845121,0.035157254,0.094865875,0.027805085937499998,0.032017261718749995
5.072,0.033844718749999995,0.035157559,0.094864773,0.027804548828124998,0.032017865
5.076,0.033844582,0.035157089843749996,0.094864836,0.027803545,0.032018469
5.08,0.033845254,0.035157824,0.094864031,0.027802941,0.032017463
5.084,0.033846191,0.035158934,0.094863398,0.027802906,0.032015719
5.088,0.033846996,0.035160543,0.094863969,0.027803041,0.032014881
5.092,0.033846727,0.035161679687499996,0.094864398,0.027803945312499998,0.032015283
5.096,0.033846395,0.035162117,0.094864398,0.027804818359374997,0.032015551
5.1,0.033845254,0.035162855,0.09486457,0.027803545,0.032015518
5.104,0.033843914,0.035164129,0.094865406,0.027802807,0.032014779
5.108,0.033843242,0.035165234,0.094865977,0.027803644531249998,0.032014947265624996
5.112,0.033842906,0.035166477,0.094866344,0.027804449,0.032014545
5.116,0.033842672,0.03516775,0.094865945,0.02780532,0.032013641
5.12,0.033842102,0.035168753906249996,0.094866984,0.027806059,0.032013806640624996
5.124,0.033841633,0.035169629,0.094868898,0.027806762,0.032014812499999996
5.128,0.033842203,0.035170633,0.094869836,0.027807299,0.032015182
5.132,0.033841867,0.03517107,0.094869227,0.027807400390624997,0.032015115234374995
5.136,0.033841296874999996,0.03517127,0.094869164,0.02780693,0.032015215
5.14,0.033841195312499996,0.03517184,0.094869531,0.027806896,0.032015383
5.144,0.033841164,0.035172242,0.094868992,0.027806091796874998,0.03201535
5.148,0.033841063,0.035172645,0.094869164,0.027805053,0.032014445
5.152,0.033839957,0.035173785,0.09487007,0.027805253906249997,0.032015014
5.156,0.033838547,0.035174289062499996,0.094870703,0.027806326,0.032016055
5.16,0.033838312499999995,0.035174926,0.094870203,0.027806896,0.032014646
5.164,0.033838848,0.035175328124999995,0.094869633,0.027807936,0.032013806640624996
5.168,0.033838613,0.035175797,0.09486943,0.027808439,0.032014277
5.172,0.033838445,0.035176367,0.094869703,0.027808808593749998,0.032014479
5.176,0.033838012,0.035177137,0.094870172,0.027809076,0.03201592
5.18,0.033837238,0.035177371,0.094869031,0.027808707031249998,0.032016824
5.184,0.033836535,0.035177105,0.094868094,0.027808136718749998,0.03201716
5.188,0.033836031249999995,0.035177171874999996,0.094867484,0.027807164062499997,0.032017227
5.192,0.033835632812499995,0.035177574,0.094866078,0.027807164062499997,0.032017126953124996
5.196,0.033835464843749996,0.035178176,0.094865742,0.027806729,0.032017193
5.2,0.033836066,0.035179383,0.094865844,0.027806394531249997,0.032017061
5.204,0.033836503906249996,0.035178813,0.094864266,0.027805488,0.032017463
5.208,0.033836031249999995,0.035177773,0.094862695,0.027806025,0.03201783
5.212,0.033834992187499996,0.035177238281249995,0.094861383,0.027806025,0.032018066
5.216,0.033834324218749996,0.035177105,0.094860648,0.027805656249999998,0.032018232
5.22,0.033833484,0.035177473,0.094860445,0.027805689453124997,0.032018367
5.224,0.033833418,0.035177473,0.094859875,0.02780532,0.032017898
5.228,0.033833754,0.035177371,0.094858531,0.027804383,0.03201783
5.232,0.033833785,0.035177273437499997,0.094857125,0.027803879,0.032018099609374996
5.236,0.033833453124999996,0.035177707,0.09485575,0.027803041,0.032017664
5.24,0.033832512,0.035177773,0.094855516,0.027803107421874997,0.032017629
5.244,0.033832210937499996,0.035178007812499995,0.094854609,0.027803208984374998,0.032017328
5.248,0.033832210937499996,0.035177773,0.094853,0.027803143,0.032017395
5.252,0.033832578,0.035177305,0.094851898,0.027804146,0.032017093749999996
5.256,0.033833117,0.035176800781249996,0.094851156,0.027804080078124998,0.032017496
5.26,0.033833117,0.035176602,0.094850117,0.027803509765624998,0.032017395
5.264,0.033833082031249996,0.035178043,0.09484925,0.027802539,0.032016322
5.268,0.033833855,0.035179016,0.094847203,0.027800996,0.032014611
5.272,0.033834188,0.035179851562499996,0.094843242,0.027801197265624997,0.032014311
5.276,0.033834355,0.035179988,0.094843953,0.027800527,0.032013773
5.28,0.033834023,0.035179922,0.094845523,0.027799957,0.032013773
5.284,0.033833316,0.035179851562499996,0.094846398,0.027799621093749997,0.032013539
5.288,0.033832949,0.035179617,0.094845563,0.027799219,0.032012869
5.292,0.033832883,0.035180188,0.094847266,0.027799722656249998,0.032012935546874996
5.296,0.033832816,0.035181093749999996,0.094848875,0.027801365,0.032014713
5.3,0.033833249999999995,0.035181395,0.094849211,0.027801936,0.032016087890624996
5.304,0.033832781,0.035182168,0.094849148,0.027801498046874998,0.032015283
5.308,0.033832648,0.035183309,0.094850391,0.027800561,0.032013473
5.312,0.033832578,0.035184246093749996,0.094850656,0.027800795,0.032011729
5.316,0.033832746,0.03518525,0.094850453,0.027801062499999998,0.032011326
5.32,0.033831977,0.035184949,0.094850422,0.027801566,0.032012031249999996
5.324,0.033830668,0.035184816,0.09485143,0.027802807,0.032013137
5.328,0.033829027,0.03518552,0.094851898,0.027803477,0.032014611
5.332,0.033827316406249995,0.035185352,0.094852,0.027805188,0.032016289
5.336,0.033827082,0.035184348,0.09485243,0.027805554687499998,0.03201716
5.34,0.033827988,0.035183977,0.094851898,0.02780398,0.032017865
5.344,0.033828625,0.03518448,0.094850992,0.027803242187499997,0.032016893
5.348,0.033829359,0.03518475,0.094850422,0.027802807,0.032014779
5.352,0.033830871,0.035183542968749995,0.094849922,0.027803008,0.032013974609374996
5.356,0.033831676,0.035180457,0.094848477,0.027803074218749998,0.032013908
5.36,0.033831371,0.035176535,0.094848211,0.027803644531249998,0.032014244
5.364,0.033831070312499996,0.035172445,0.094848039,0.027804951171874998,0.032015518
5.368,0.033830164,0.035168753906249996,0.094847641,0.027805455,0.03201659
5.372,0.033829027,0.035165234,0.094846367,0.027805521484374998,0.032017463
5.376,0.03382973,0.035162988,0.094846703,0.027805422,0.032017361
5.38,0.033830133,0.035162484,0.094846969,0.027805455,0.032015953124999996
5.384,0.03383,0.03516225,0.094846266,0.027804852,0.032014611
5.388,0.033829898,0.03516225,0.094846266,0.027804482,0.032013439
5.392,0.033829898,0.035162555,0.094847203,0.027804281,0.032012635
5.396,0.033829797,0.035162219,0.094847672,0.027803309,0.032013539
5.4,0.03382973,0.035161949218749995,0.094847672,0.027803074218749998,0.032014277
5.404,0.033829563,0.035162855,0.094848477,0.027803611,0.032014713
5.408,0.033829058593749996,0.035162723,0.094848008,0.027803275,0.032015785
5.412,0.033829125,0.035162285,0.094848141,0.02780341,0.032016623
5.416,0.033828488,0.035163727,0.094848211,0.027803912,0.032017193
5.42,0.033828488,0.035165035156249996,0.094848578,0.027804281,0.032017964843749996
5.424,0.033828055,0.035164465,0.094848312,0.027804717,0.032019406
5.428,0.033827684,0.035165137,0.094848312,0.027805957,0.032019977
5.432,0.033828085937499995,0.035165871093749995,0.09484807,0.027806259765624997,0.032020949
5.436,0.033828289062499996,0.03516584,0.094847742,0.027806326,0.032020880859374996
5.44,0.033827617,0.035166141,0.094846969,0.027806293,0.032021922
5.444,0.033827449,0.035166746,0.094846703,0.027805857,0.032022189453124995
5.448,0.033828152,0.035166746,0.094846703,0.027805723,0.032021955
5.452,0.033829695,0.035167414,0.094846797,0.027805656249999998,0.032021553
5.456,0.033830133,0.035168992,0.094846195,0.027805085937499998,0.03202182
5.46,0.033829563,0.035169426,0.094844219,0.027804584,0.032021082
5.464,0.03383,0.035169559,0.094843852,0.027805119140624997,0.032019742
5.468,0.033829898,0.035170531,0.094844852,0.027804584,0.032019943
5.472,0.03383,0.035171906249999996,0.094844352,0.027805152,0.03202058
5.476,0.033830164,0.035173082,0.09484318,0.027805992,0.032020781
5.48,0.033830234,0.035173953,0.094843109,0.027806560546874998,0.032020244
5.484,0.033831609,0.035174555,0.09484318,0.027806629,0.032019809
5.488,0.033832512,0.035175160156249996,0.094841703,0.027805152,0.032020009765624996
5.492,0.033832848,0.035176300781249996,0.094840898,0.027805723,0.032019439
5.496,0.033832848,0.035177371,0.094841203,0.027806293,0.032018970703124996
5.5,0.033833148,0.035177977,0.094840594,0.027805824218749997,0.032018904
5.504,0.033832246,0.035178746,0.094839992,0.02780502,0.032019439
5.508,0.033830535,0.035180289,0.094840359,0.027806394531249997,0.032019271
5.512,0.033831406,0.035182,0.094840297,0.027808305,0.032018267578124995
5.516,0.033832379,0.035182266,0.094838656,0.027808841796874997,0.032017629
5.52,0.033832078,0.035182637,0.094832984,0.027808037,0.032017797
5.524,0.033831339843749995,0.035182469,0.094830672,0.027807667968749998,0.032017664
5.528,0.0338305,0.035183273437499996,0.094831273,0.027807969,0.032017998046874996
5.532,0.033829797,0.03518334,0.094831781,0.027808338,0.032019809
5.536,0.033827887,0.035182,0.09483118,0.027808305,0.032021787
5.54,0.033827719,0.03518257,0.094830672,0.027808841796874997,0.032022054687499996
5.544,0.033828223,0.035183742,0.094830805,0.027808908,0.032021652
5.548,0.033828625,0.035184144531249996,0.094830977,0.027808607,0.032020916
5.552,0.033829027,0.03518468,0.094830875,0.027808406249999997,0.032019641
5.556,0.033828957031249995,0.03518475,0.094830945,0.027808205,0.032019709
5.56,0.033828793,0.035184918,0.094831109,0.027808406249999997,0.032018502
5.564,0.033828957031249995,0.035185183593749995,0.094830375,0.027807969,0.032017596
5.568,0.033829461,0.035185652,0.094830141,0.027808004,0.032017126953124996
5.572,0.033829797,0.035185887,0.094830437,0.027808406249999997,0.032016958984374996
5.576,0.033829496,0.035185855,0.094830641,0.027808975,0.032017764
5.58,0.033829094,0.035186156249999996,0.09483007,0.027808773,0.03201934
5.584,0.033828523,0.03518609,0.09483,0.027807902,0.032020613
5.588,0.033828523,0.035185988,0.094829633,0.027808004,0.032021082
5.592,0.033828758,0.035185855,0.094828961,0.027809043,0.032020880859374996
5.596,0.033828793,0.035185723,0.094828055,0.027809914,0.032019842
5.6,0.033828121,0.035185015624999996,0.094827922,0.027810383,0.032020346
5.604,0.033827082,0.03518552,0.094828055,0.027810652,0.032021150390624996
5.608,0.033826043,0.035186859,0.094828625,0.027810785,0.032021619
5.612,0.033825941,0.035187195312499996,0.094829164,0.027810181640624997,0.032021117187499996
5.616,0.033826543,0.03518743,0.094829734,0.027809847656249997,0.032021484
5.62,0.033827617,0.035188,0.094829836,0.027809914,0.032021922
5.624,0.033827215,0.035188437499999996,0.094829898,0.027809712890624998,0.032021586
5.628,0.033826878906249996,0.03518884,0.094829937,0.027809512,0.032020514
5.632,0.033828055,0.035189476562499995,0.094830437,0.027809311,0.032019607
5.636,0.033828859,0.035189176,0.094829,0.027809512,0.032019508
5.64,0.033828793,0.035188738,0.094829031,0.027809947,0.03201934
5.644,0.033828824,0.035188871,0.094830336,0.027810986,0.032020211
5.648,0.033828625,0.035188805,0.094830742,0.027811389,0.032020144531249996
5.652,0.033828625,0.035188605468749995,0.094830273,0.027810718749999998,0.032020177734374995
5.656,0.033829094,0.035188973,0.094828289,0.027809244140624998,0.032019742
5.66,0.033829797,0.03518934,0.094827055,0.027807635,0.032019607
5.664,0.033830133,0.035188773,0.094826148,0.027806729,0.032019809
5.668,0.033830637,0.035188035,0.094824469,0.027805488,0.032019508
5.672,0.033831273,0.03518743,0.094824234,0.027805085937499998,0.032020982
5.676,0.033830805,0.035185652,0.094822328,0.027804986,0.032022391
5.68,0.033830668,0.035184883,0.094821758,0.027805689453124997,0.032022357
5.684,0.033830066,0.03518468,0.094822461,0.027807232421874998,0.032024033203124996
5.688,0.03382973,0.035184984,0.094821992,0.027807097656249998,0.032025543
5.692,0.033829695,0.03518468,0.094821047,0.027805554687499998,0.032024436
5.696,0.033829695,0.035185285156249996,0.09482075,0.027806326,0.032023463
5.7,0.033830871,0.035186691,0.094821047,0.027807332,0.032023363
5.704,0.033832210937499996,0.035186895,0.094820383,0.027806830078124997,0.032023027343749996
5.708,0.033832176,0.035187093749999995,0.094820047,0.027806863,0.032022928
5.712,0.033832312499999996,0.035187398437499996,0.094818734,0.027806461,0.032021988
5.716,0.033832210937499996,0.035187867,0.094818469,0.027806729,0.032021150390624996
5.72,0.033831609,0.035188371,0.09481857,0.027807667968749998,0.032021217
5.724,0.033831773,0.035189543,0.094818305,0.027807365,0.032021082
5.728,0.033832012,0.035190179687499996,0.0948185,0.027806762,0.032020076
5.732,0.033831574,0.035191453,0.094819242,0.027806560546874998,0.032019809
5.736,0.033831305,0.035192527343749995,0.094819711,0.027805791015624998,0.032019238
5.74,0.033830871,0.035192895,0.094819914,0.027805085937499998,0.032018635
5.744,0.033829898,0.035192695,0.094819203,0.02780532,0.03201867
5.748,0.033829863,0.035193734,0.094819141,0.027806326,0.0320184
5.752,0.033830402343749996,0.035195109,0.094819375,0.027807602,0.03201867
5.756,0.033832512,0.035194504,0.094819305,0.027807232421874998,0.032019138671874996
5.76,0.03383466,0.035194238,0.09481793,0.02780693,0.032019809
5.764,0.033834457,0.035194504,0.094816727,0.027806428,0.032020479
5.768,0.033833652,0.035194707,0.094816289,0.027806124999999998,0.032020479
5.772,0.033833688,0.035195445,0.094816156,0.027805253906249997,0.032020076
5.776,0.033834758,0.035195813,0.094815383,0.027804918,0.03201907
5.78,0.033835898,0.035195375,0.094814211,0.027804515624999998,0.03201783
5.784,0.03383657,0.035196179687499995,0.094814547,0.027804617,0.032016791
5.788,0.033837105468749996,0.035196719,0.094816156,0.027804885,0.032016992187499996
5.792,0.033836602,0.035195543,0.094816391,0.027805554687499998,0.032018602
5.796,0.033837003906249996,0.035195008,0.094816156,0.027805756,0.032019709
5.8,0.033838547,0.035195074,0.094816461,0.027804918,0.032021150390624996
5.804,0.033838547,0.035194539062499995,0.094816258,0.027803611,0.032021619
5.808,0.033836871,0.035194137,0.094816625,0.027803912,0.032021352
5.812,0.033835699,0.035194773,0.094817195,0.027804214843749998,0.03202125
5.816,0.033835496,0.035195777,0.09481693,0.027803443,0.032020848
5.82,0.033834426,0.035196082,0.094816492,0.027804248046874997,0.03202068
5.824,0.033833117,0.035196082,0.094816625,0.027805053,0.03201991
5.828,0.033832480468749995,0.035196550781249995,0.094816359,0.027804717,0.032019307
5.832,0.033832414062499996,0.035196113,0.094815219,0.027804047,0.032018803
5.836,0.033831707,0.03519457,0.09481357,0.027803377,0.032018568
5.84,0.033831238281249995,0.035193867,0.094808812,0.027803143,0.032019003906249996
5.844,0.033830703,0.035194738,0.094804891,0.027803509765624998,0.032019373
5.848,0.033830199218749996,0.03519484,0.094806336,0.027803711,0.032018836
5.852,0.033829563,0.035194738,0.094807141,0.027804515624999998,0.032018836
5.856,0.033828457,0.035194539062499995,0.094806531,0.027804416,0.032019874999999996
5.86,0.033827551,0.035193801,0.094806063,0.027804416,0.032019977
5.864,0.03382775,0.035193199,0.094805461,0.027804314,0.032019271
5.868,0.033828625,0.035192996,0.094805859,0.027803309,0.032017898
5.872,0.033829058593749996,0.035192628906249995,0.094805328,0.027801801,0.032016893
5.876,0.033828254,0.035191957,0.094803648,0.02780123,0.032017093749999996
5.88,0.033827684,0.035190684,0.094801938,0.027800963,0.032016523
5.884,0.033827785,0.035189543,0.094800164,0.027800291,0.032015518
5.888,0.033827516,0.035189441,0.094798789,0.027799822,0.032015818359374996
5.892,0.033827215,0.035188402,0.094798289,0.027798883,0.032015652
5.896,0.033826781,0.035187699,0.094797852,0.027798314,0.032014445
5.9,0.03382668,0.035186961,0.09479718,0.027796771,0.032013875
5.904,0.03382641,0.035186054687499996,0.094796773,0.027795664,0.032013103515624995
5.908,0.033826175781249995,0.035186625,0.094796813,0.027795865234374998,0.032011695
5.912,0.033826378906249996,0.03518582,0.094796508,0.027795061,0.032011125
5.916,0.033826007812499996,0.035184312499999995,0.094794898,0.027794156,0.032010857
5.92,0.033825438,0.035183977,0.094793758,0.027794223,0.032010455
5.924,0.033824133,0.035183809,0.094793789,0.027794423828124998,0.032011527
5.928,0.033822723,0.035183039,0.094793859,0.027795095703124998,0.032010857
5.932,0.033822453,0.035182836,0.094795164,0.027795498,0.032009582
5.936,0.033822285,0.035183742,0.094795398,0.027795631,0.032008611
5.94,0.033821684,0.035185015624999996,0.094794398,0.027795027343749997,0.032008342
5.944,0.033821516,0.035185922,0.094793055,0.027795027343749997,0.032007639
5.948,0.03382202,0.035186625,0.094791914,0.027795229,0.032007438
5.952,0.033822355468749996,0.035186257812499996,0.094791477,0.027795429687499998,0.032007371
5.956,0.033822051,0.035185051,0.094791344,0.027796134765624998,0.032007705
5.96,0.033821348,0.035184348,0.094790711,0.027795597656249997,0.032006264
5.964,0.033820609,0.035184781,0.094790539,0.02779476,0.032004152
5.968,0.033820242187499995,0.03518418,0.094790906,0.027793754,0.032003648
5.972,0.0338185,0.03518277,0.094789633,0.027793687499999997,0.03200375
5.976,0.033817391,0.035182031249999995,0.094788531,0.027793184,0.032003012
5.98,0.033817055,0.035181797,0.094787523,0.027791607,0.032002643
5.984,0.033816921874999996,0.035181832,0.094786453,0.027790400390624997,0.032003146
5.988,0.033816488,0.035181395,0.094786453,0.027789898,0.032003648
5.992,0.03381625,0.035181160156249995,0.094785914,0.027790166,0.03200442
5.996,0.033815984,0.035180992187499996,0.094784469,0.027789596,0.032005324
6,0.03381575,0.035180926,0.094782898,0.027789361328124998,0.032005594
6.004,0.033814977,0.035180895,0.094781523,0.027788958984374997,0.032005525
6.008,0.033814645,0.035180691,0.094781453,0.027789094,0.032005023
6.012,0.033815179687499995,0.035180121093749996,0.094781117,0.027789027343749998,0.032003648
6.016,0.033815816,0.035180457,0.094781188,0.027789664,0.032002876953124995
6.02,0.033814945,0.035180324218749996,0.094780922,0.027790066406249998,0.032003414
6.024,0.033813738,0.035179351562499996,0.094779508,0.027790099609374997,0.032004387
6.028,0.033812867,0.035179449,0.094778742,0.027790501953124998,0.032004654
6.032,0.033812262,0.035180625,0.094777969,0.027790838,0.032004354
6.036,0.033811727,0.035180859,0.094777266,0.027790199,0.032003816406249996
6.04,0.033811757812499996,0.035180895,0.094777164,0.027789664,0.032003146
6.044,0.033811625,0.035181531,0.09477807,0.027789898,0.03200291
6.048,0.033811523,0.035181629,0.094779406,0.027790535156249997,0.032001703124999996
6.052,0.033812063,0.035182871,0.094778672,0.027790904,0.032000027
6.056,0.033812699,0.035182402343749995,0.094777469,0.027790838,0.031999559
6.06,0.033812230468749996,0.035181328,0.094775891,0.027790568,0.032000463
6.064,0.033810718749999996,0.035180121093749996,0.09477368,0.027790133,0.032000865
6.068,0.03381052,0.035179148,0.094772836,0.02778916,0.032001033
6.072,0.03381025,0.035178914,0.094772938,0.027788791015624998,0.032001336
6.076,0.033809914,0.035179551,0.094773539,0.027788054687499997,0.032000732
6.08,0.033810383,0.035179652,0.094773141,0.027786880859374998,0.031998685546874996
6.084,0.033810453,0.035180457,0.094772398,0.027786277,0.031997514
6.088,0.033810050781249996,0.035181227,0.094771594,0.027784969,0.031996775390624996
6.092,0.033809746093749996,0.035181160156249995,0.094770461,0.027783292968749998,0.031996406
6.096,0.033810117187499995,0.035181129,0.094769086,0.027783092,0.031996475
6.1,0.033811188,0.035180324218749996,0.094767773,0.027783395,0.031996238
6.104,0.033810855,0.035179719,0.094766773,0.027783359,0.031996238
6.108,0.033810218749999996,0.035179617,0.0947665,0.027784232,0.031997111
6.112,0.033810383,0.035179383,0.094765633,0.027784433593749998,0.031997313
6.116,0.033810117187499995,0.035178848,0.094764453,0.02778393,0.03199634
6.12,0.033809847656249996,0.035177809,0.094763281,0.027783158203124998,0.031995568
6.124,0.03380968,0.035177438,0.094763484,0.02778259,0.031994395
6.128,0.033810484,0.035176800781249996,0.094761805,0.027782689,0.031994763671874996
6.132,0.033810285,0.035175929687499996,0.094759727,0.027782086,0.031994865234374996
6.136,0.033810316,0.035175898,0.094759023,0.027780746,0.031994529
6.14,0.033810117187499995,0.035175929687499996,0.094758727,0.027780678,0.031994730468749996
6.144,0.033809012,0.035175429687499996,0.094758523,0.027782119,0.031995601562499996
6.148,0.033808039062499996,0.035174055,0.09475825,0.027782689,0.031996475
6.152,0.033806863281249995,0.035172445,0.094757617,0.027782421874999998,0.03199634
6.156,0.033806262,0.035170265624999995,0.094757617,0.027782355,0.031995601562499996
6.16,0.033805457,0.035168085937499996,0.09475775,0.027781851562499998,0.031996373
6.164,0.033804617,0.035165703124999996,0.094758086,0.027781752,0.031996508
6.168,0.033803578,0.035164832031249996,0.094758086,0.027781281249999998,0.031995904296874995
6.172,0.03380234,0.035163894531249996,0.094757953,0.027780845703124998,0.031994965
6.176,0.033802707,0.035162555,0.094758422,0.027781382812499998,0.031994295
6.18,0.033804047,0.035161379,0.094758555,0.027782254,0.031994262
6.184,0.033804484,0.035159871093749996,0.094758219,0.027782890624999997,0.031993959
6.188,0.033804652,0.035157895,0.094756781,0.027783494,0.031993589843749996
6.192,0.033804015624999996,0.035156117187499995,0.094752891,0.027783227,0.031993256
6.196,0.033804281,0.035154844,0.094745211,0.027782254,0.031992148
6.2,0.033803512,0.035153398,0.094743297,0.027781449218749997,0.031992014
6.204,0.033802976562499996,0.035151457,0.094744141,0.027782221,0.031992416
6.208,0.03380284,0.035149141,0.094744406,0.027781752,0.031993088
6.212,0.033802305,0.035147434,0.094744711,0.027781047,0.031993791
6.216,0.033802305,0.035146293,0.094744305,0.027781113,0.031993724609374996
6.22,0.03380341,0.035145285,0.094744375,0.027780845703124998,0.031993523
6.224,0.033803309,0.035144918,0.094744141,0.027779839843749998,0.031993188
6.228,0.033802906,0.035145285,0.094744039,0.027779203,0.03199292
6.232,0.033803074,0.035145355,0.094744609,0.027780008,0.031993055
6.236,0.033804652,0.035146461,0.094745141,0.027780410156249997,0.031993188
6.24,0.03380425,0.035147098,0.094744875,0.027781281249999998,0.031993523
6.244,0.033802473,0.035146961,0.094744102,0.027781684,0.031993892578124995
6.248,0.033801465,0.03514723,0.094744609,0.027781584,0.031994463
6.252,0.033800895,0.03514807,0.094745711,0.027782455078124997,0.031994061
6.256,0.0338015,0.035149644531249996,0.094745945,0.02778326,0.03199416
6.26,0.03380207,0.035150383,0.094746016,0.027782755859374998,0.031992853515624996
6.264,0.033801566,0.035150316,0.094746383,0.027783227,0.031992551
6.268,0.033800328,0.035151054687499995,0.094746188,0.02778393,0.03199235
6.272,0.033798918,0.035151254,0.094746117,0.027784836,0.031991947
6.276,0.033798551,0.035151488,0.094747422,0.027784298828124998,0.031992451
6.28,0.033798816,0.035152027343749996,0.094747789,0.027783596,0.031991076
6.284,0.033799355,0.035152695312499996,0.094747227,0.027783460937499997,0.031990271
6.288,0.03379959,0.035153133,0.094745883,0.027784131,0.031991311
6.292,0.033799890624999995,0.035153234,0.094745281,0.02778393,0.031991545
6.296,0.033800527,0.035152996,0.094744305,0.027783596,0.031990975
6.3,0.03380016,0.035153031,0.094742594,0.027782992187499998,0.031990641
6.304,0.033799957,0.035152898437499996,0.094741625,0.027782455078124997,0.031990941
6.308,0.033799957,0.035153133,0.094739945,0.027782689,0.031991209
6.312,0.033800023,0.035153703,0.094739984,0.027782488,0.031991143
6.316,0.03379959,0.035154605468749996,0.094740414,0.027783863281249998,0.031992316
6.32,0.033799621093749996,0.035155313,0.09473968,0.027784869140624998,0.031993523
6.324,0.033799656,0.03515434,0.094738742,0.027784131,0.031993322
6.328,0.033800023,0.035153332,0.094737602,0.027783059,0.031993959
6.332,0.03380073,0.035152496,0.094736859,0.027782355,0.031995199
6.336,0.0338015,0.03515243,0.094736227,0.027782188,0.031995367
6.34,0.033801266,0.035152563,0.094735422,0.027781953124999998,0.031994529
6.344,0.033800797,0.035152996,0.094734016,0.027780947265624998,0.031994496
6.348,0.033799488,0.035153434,0.094732367,0.027781248,0.031994227
6.352,0.033797710937499996,0.035152796874999996,0.094731898,0.027782722656249998,0.031994595703124996
6.356,0.033797039,0.035152395,0.094731734,0.027782957,0.031995133
6.36,0.033796773,0.03515273,0.094731398,0.027782623,0.031995268
6.364,0.033796468749999996,0.035153234,0.094731031,0.027782421874999998,0.031995199
6.368,0.033796805,0.035153098,0.09473093,0.027781416015624998,0.031995199
6.372,0.033797477,0.0351535,0.094729953,0.027780344,0.031994193
6.376,0.033798383,0.035155176,0.094729187,0.02777917,0.031991914
6.38,0.033798984,0.035156148,0.094729148,0.027779068,0.031990506
6.384,0.033798383,0.035156953,0.094729453,0.027779236328124998,0.031990371
6.388,0.033797844,0.035157422,0.094730023,0.027778833984374997,0.031991311
6.392,0.033798316,0.035157254,0.094729789,0.027778432,0.031991679687499996
6.396,0.033797777,0.035156652,0.094729117,0.027778197,0.031992686
6.4,0.033796336,0.035156148,0.094728445,0.027778297,0.031993658
6.404,0.033795664,0.03515598,0.094728078,0.027778533203124997,0.03199302
6.408,0.033794996,0.035156050781249996,0.094728344,0.0277786,0.031992215
6.412,0.033795098,0.03515598,0.094729922,0.027779236328124998,0.031991679687499996
6.416,0.033795597656249995,0.03515652,0.09472982,0.027779605,0.031991914
6.42,0.033795465,0.035157289,0.094728109,0.027779773,0.031991611328124996
6.424,0.033796570312499996,0.035156352,0.094727305,0.027778164,0.031992049
6.428,0.033796707,0.035154508,0.094726336,0.027777459,0.031992986
6.432,0.033796137,0.03515434,0.094725398,0.027776957031249997,0.03199349
6.436,0.033796504,0.035154574,0.094725531,0.02777548,0.031993422
6.44,0.033796570312499996,0.035155313,0.094726398,0.027775212890624998,0.03199235
6.444,0.033796336,0.035156785156249995,0.094726164,0.027775984,0.031991176
6.448,0.03379627,0.035157625,0.09472607,0.027776251953124997,0.031990572265624996
6.452,0.033796066,0.035158328,0.094725836,0.027774912109374997,0.031990137
6.456,0.033796305,0.035159101562499996,0.094724594,0.027774844,0.031988830078124995
6.46,0.033796805,0.035159336,0.094718289,0.027775447,0.031988963
6.464,0.033796402,0.035158999999999996,0.094714531,0.02777548,0.031989835937499995
