time,F8,F4,Fz,F3,F7
0,0.000236169,0.00241553,0.076477023,-0.00561031,0.013107251
0.004,0.000232715,0.002413787,0.076476086,-0.005609203,0.013105676
0.008,0.000231508,0.002414189,0.076476953,-0.005611382,0.013105575
0.012,0.000233319,0.002414893,0.076478633,-0.005614098,0.013106916
0.016,0.000233185,0.002415631,0.076480141,-0.005616546,0.013108392
0.02,0.000234324,0.002415665,0.076479203,-0.005619161,0.013107386
0.024,0.000232648,0.002413586,0.0764785,-0.005619865,0.013106078
0.028,0.000230536,0.002411943,0.076478797,-0.005618524,0.013105742
0.032,0.000231408,0.002411775,0.076478766,-0.005617719,0.013105474609374999
0.036,0.000231776,0.002412178,0.076478164,-0.005617987,0.013105105
0.04,0.000231307,0.002412111,0.076476953,-0.005618859,0.013104804
0.044,0.000229932,0.002411373,0.07647625,-0.005621307,0.013104468749999999
0.048,0.000229664,0.002411205,0.076476953,-0.005624559,0.013103128
0.052,0.000232112,0.002411742,0.076477391,-0.005625866,0.013102457031249999
0.056,0.00023362,0.002411675,0.076477727,-0.005626135,0.013103027343749999
0.06,0.000230972,0.002410736,0.076477359,-0.005625498,0.013103329
0.064,0.000230603,0.002409697,0.076476117,-0.0056259,0.013101619
0.068,0.000230636,0.002408188,0.076475281,-0.005626302,0.013099271
0.072,0.000230704,0.002408926,0.07647675,-0.005628146,0.013099708007812499
0.076,0.000231676,0.002409428,0.076477422,-0.00562932,0.013100479
0.08,0.000229966,0.002408657,0.076477188,-0.005629119,0.013100880859374999
0.084,0.000228457,0.002406646,0.076474539,-0.005626135,0.01309897
0.088,0.000227518,0.002403662,0.076472625,-0.005622949,0.01309602
0.092,0.000227753,0.002403326,0.076473195,-0.005621709,0.013095014
0.096,0.000227284,0.002404366,0.07647343,-0.005621474,0.013096188
0.1,0.000225373,0.002403092,0.076471961,-0.005620703,0.013096188
0.104,0.000223227,0.002401415,0.076471523,-0.005622044,0.013095114
0.108,0.000223596,0.00240108,0.076471961,-0.005624425,0.013094242187499999
0.112,0.000227451,0.002401784,0.076472359,-0.005627073,0.013093572265624999
0.116,0.000225607,0.002403125,0.076474508,-0.005628381,0.013094242187499999
0.12,0.000222389,0.002402555,0.076474203,-0.005628951,0.013095315429687499
0.124,0.000220478,0.002399772,0.076473133,-0.005628817,0.013093639648437499
0.128,0.000218835,0.002399001,0.076474,-0.005628481,0.013090622070312499
0.132,0.000217594,0.00239766,0.076475242,-0.005625799,0.013091226
0.136,0.000217326,0.002396688,0.076475109,-0.005624961,0.013092063476562499
0.14,0.000217393,0.002397023,0.076475812,-0.005628347,0.013091326171874999
0.144,0.000221215,0.002397727,0.076476281,-0.005634449,0.013089582
0.148,0.000222456,0.002397157,0.076477758,-0.005637199,0.013089448
0.152,0.000221718,0.002397694,0.076478359,-0.005637467,0.013089783
0.156,0.000222757,0.002398364,0.076478398,-0.00563807,0.013090554687499999
0.16,0.000224736,0.002397895,0.076476953,-0.005637534,0.013088274
0.164,0.000223864,0.002396386,0.076475109,-0.005635724,0.013086129
0.168,0.00022373,0.002394609,0.076473836,-0.005633611,0.013083245
0.172,0.000222489,0.002395816,0.076476219,-0.005634047,0.013082608398437499
0.176,0.000224065,0.002396654,0.076476555,-0.005634147,0.013083111328124999
0.18,0.000223093,0.002394978,0.076475781,-0.005635857,0.013082407226562499
0.184,0.000224903,0.002393503,0.076475008,-0.005640652,0.013080865234374999
0.188,0.000226948,0.002393033,0.076474906,-0.005643435,0.013079256
0.192,0.000229128,0.002393167,0.076475281,-0.00564377,0.013078317
0.196,0.000230569,0.002394106,0.076475242,-0.005645748,0.013078753
0.2,0.000231709,0.002394978,0.076474375,-0.005647693,0.013078619
0.204,0.000230301,0.002394106,0.07647407,-0.005648531,0.013077948
0.208,0.000232246,0.002393302,0.076474945,-0.005649973,0.013074963867187499
0.212,0.000232615,0.00239367,0.076475945,-0.005651146,0.013076205
0.216,0.00023523,0.002393804,0.076474844,-0.00565299,0.013078786132812499
0.22,0.000236236,0.002392296,0.076472531,-0.005656175,0.013080093749999999
0.224,0.000234492,0.002391424,0.07647243,-0.005660232,0.013078686
0.228,0.000233017,0.002391692,0.076473633,-0.005662713,0.013077646
0.232,0.000232279,0.002392262,0.076474711,-0.005661875,0.013077579101562499
0.236,0.000233755,0.002392396,0.076474,-0.005661875,0.013076809
0.24,0.000233486,0.002390787,0.076472063,-0.005660534,0.013075132
0.244,0.000232145,0.002389614,0.076471523,-0.005663317,0.013073188
0.248,0.000230435,0.002390049,0.076472094,-0.005664054,0.013071813
0.252,0.000229932,0.002391156,0.076472828,-0.005662545,0.013072617
0.256,0.000233989,0.002390821,0.076471422,-0.005664792,0.013073086914062499
0.26,0.000235733,0.002389043,0.076469477,-0.005666535,0.013072383
0.264,0.000232782,0.002388775,0.076468977,-0.005668748,0.013071007812499999
0.268,0.000232112,0.002388272,0.076470047,-0.005670625,0.013070504882812499
0.272,0.000235397,0.002388641,0.076472594,-0.005672671,0.013068996
0.276,0.000236973,0.002390217,0.076474234,-0.005674917,0.013069398
0.28,0.000236839,0.002390787,0.076473234,-0.00567589,0.013069298
0.284,0.000234894,0.002388775,0.076471555,-0.005676124,0.01306799
0.288,0.000235364,0.002386965,0.076471453,-0.005675856,0.013065945312499999
0.292,0.000234626,0.002387367,0.076472492,-0.005675186,0.013064738
0.296,0.000234794,0.00238844,0.076473398,-0.005676862,0.013065309
0.3,0.000232983,0.002388876,0.076472391,-0.00567827,0.013065845
0.304,0.000232279,0.002386395,0.076471055,-0.005679041,0.013065073
0.308,0.000230938,0.002384786,0.076472227,-0.005680885,0.013064839
0.312,0.000230201,0.002385322,0.076473633,-0.005682461,0.013065912
0.316,0.000233319,0.002385624,0.07647407,-0.005683333,0.01306504
0.32,0.000229932,0.00238549,0.076474375,-0.005683299,0.013063397
0.324,0.000226781,0.002385691,0.076474203,-0.005683769,0.013063162
0.328,0.000230268,0.002385121,0.076473672,-0.005686183,0.013062458
0.332,0.00022953,0.002385322,0.076475414,-0.005684909,0.013062022
0.336,0.000228692,0.002385926,0.076475445,-0.005683467,0.013062727
0.34,0.000229027,0.002386026,0.076474375,-0.005685512,0.013062057
0.344,0.000228457,0.002385523,0.076474336,-0.005687021,0.013060749
0.348,0.000228859,0.002383445,0.076473195,-0.005684003,0.013058871093749999
0.352,0.000227083,0.002382271,0.076473195,-0.005679678,0.013058033
0.356,0.000227284,0.002380829,0.07647132,-0.005676627,0.013057027
0.36,0.000227921,0.002379589,0.076469914,-0.005677532,0.013055753
0.364,0.0002244,0.002379119,0.076471023,-0.005681321,0.013055786132812499
0.368,0.000225171,0.00237922,0.076471586,-0.00568283,0.013054177
0.372,0.000228189,0.002380326,0.076472156,-0.005683869,0.013053607
0.376,0.000227921,0.002382238,0.076474172,-0.005685881,0.013055519
0.38,0.000226211,0.00238217,0.076473906,-0.005687658,0.013056893
0.384,0.000225775,0.002381735,0.076473336,-0.005690709,0.013056256
0.388,0.000227418,0.00237979,0.076471992,-0.005692553,0.013054445
0.392,0.000227083,0.002378818,0.076471422,-0.005692352,0.01305401
0.396,0.000224501,0.002379287,0.076472359,-0.005690608,0.013054244140624999
0.4,0.000223596,0.002379589,0.076472391,-0.005690843,0.013054177
0.404,0.000224601,0.002378281,0.076471352,-0.005691547,0.013053406
0.408,0.000224635,0.002376772,0.07647075,-0.005693223,0.013052667968749999
0.412,0.000225808,0.002377041,0.076471688,-0.005694062,0.013051897
0.416,0.00022668,0.002378214,0.076472063,-0.005695503,0.01305307
0.42,0.000226513,0.002378415,0.076471055,-0.005695235,0.013052434
0.424,0.000227116,0.002377309,0.076469781,-0.005694799,0.013049416015624999
0.428,0.000225004,0.002375499,0.076470719,-0.005693693,0.013047572
0.432,0.000224702,0.002375867,0.076471492,-0.005694062,0.01304831
0.436,0.000226445,0.002376571,0.07647132,-0.005693625,0.013047237304687499
0.44,0.000226177,0.002376974,0.076470219,-0.005692687,0.01304499
0.444,0.000224467,0.002376404,0.076469914,-0.005693995,0.013044823
0.448,0.000223093,0.002375834,0.076469813,-0.00569671,0.013045862
0.452,0.000224836,0.002376404,0.076471055,-0.005698252,0.013046634
0.456,0.000223864,0.002376638,0.076471688,-0.005698252,0.013048175781249999
0.46,0.000222322,0.00237523,0.076469977,-0.005697783,0.013047941
0.464,0.000220712,0.002373151,0.076468305,-0.005696542,0.013046936
0.468,0.00022031,0.002372414,0.076468203,-0.0056949,0.013044521
0.472,0.000220411,0.002372716,0.076468539,-0.005693559,0.013043516
0.476,0.000219673,0.002372481,0.076468234,-0.005692854,0.013043783
0.48,0.000217326,0.002371207,0.076467367,-0.005691513,0.01304261
0.484,0.000216052,0.002369899,0.076466727,-0.005691178,0.013039861
0.488,0.000217192,0.00236886,0.076466727,-0.00569386,0.013038419
0.492,0.000216521,0.002369262,0.076467,-0.0056949,0.013040330078124999
0.496,0.000216488,0.002371341,0.076467367,-0.005696174,0.013042677
0.5,0.000215549,0.002370536,0.076465391,-0.005696979,0.013042912109374999
0.504,0.000214174,0.002369732,0.076465391,-0.005697716,0.013039894531249999
0.508,0.00021233,0.002369899,0.076466625,-0.005697984,0.013038151367187499
0.512,0.000211157,0.002371877,0.076468875,-0.005700868,0.013038285
0.516,0.000215985,0.002373118,0.076469414,-0.005703717,0.013038016601562499
0.52,0.000218734,0.002372716,0.076469141,-0.005705461,0.013036206
0.524,0.000216756,0.00237285,0.076469039,-0.00570754,0.013033993164062499
0.528,0.000215214,0.002373185,0.076470219,-0.005711563,0.013035770507812499
0.532,0.000217091,0.00237352,0.076470883,-0.005712066,0.013037648437499999
0.536,0.000217896,0.002372984,0.076470313,-0.005710523,0.013038888671874999
0.54,0.000214275,0.002372682,0.076470313,-0.005711429,0.013039995
0.544,0.000210788,0.002371911,0.076469813,-0.005710054,0.013038788
0.548,0.000212766,0.002370167,0.076468133,-0.005706802,0.013034161
0.552,0.000213671,0.002370603,0.076468406,-0.005706299,0.013032484
0.556,0.000213839,0.002372347,0.076469211,-0.005708813,0.013033658
0.56,0.000214342,0.00237342,0.076468977,-0.005709786,0.013033289
0.564,0.000213504,0.002372883,0.076469039,-0.005711664,0.013031211
0.568,0.000211827,0.002371945,0.076470078,-0.005714983,0.013030673828124999
0.572,0.000210755,0.002371877,0.076471555,-0.005715251,0.013031848
0.576,0.0002129,0.002373151,0.076472258,-0.005717162,0.013034128
0.58,0.0002129,0.00237352,0.076471891,-0.005719677,0.013034966
0.584,0.000210855,0.002374023,0.076472359,-0.0057238,0.013035200195312499
0.588,0.000210151,0.002374861,0.07647343,-0.005726349,0.013035469
0.592,0.00021176,0.002376906,0.076474375,-0.005726617,0.013033859
0.596,0.000214912,0.002378415,0.076474172,-0.005728125,0.013032786
0.6,0.00021461,0.002377979,0.076474609,-0.005730506,0.013033457
0.604,0.000213571,0.002376202,0.076473531,-0.005730707,0.013032619
0.608,0.000212096,0.0023758,0.076473063,-0.005730908,0.013030439453124999
0.612,0.000213135,0.002376974,0.076474234,-0.005732652,0.013030473
0.616,0.000212431,0.002377309,0.076474234,-0.00573235,0.013031814
0.62,0.000210654,0.002375699,0.076472727,-0.005730003,0.013031747070312499
0.624,0.000207502,0.002374057,0.076471391,-0.005728327,0.013031277
0.628,0.000206295,0.002371945,0.076470453,-0.005727086,0.013030506835937499
0.632,0.000204753,0.002371643,0.076470484,-0.005725645,0.013031377929687499
0.636,0.00020415,0.002373219,0.076470547,-0.00572665,0.013033122
0.64,0.000207569,0.00237067,0.076468938,-0.005730942,0.013034966
0.644,0.000206631,0.002368592,0.076468102,-0.005735636,0.013035569335937499
0.648,0.000204552,0.002368424,0.076467898,-0.005739458,0.013037983
0.652,0.000204787,0.002367854,0.076466961,-0.005740464,0.013041838867187499
0.656,0.000205994,0.002366312,0.076464781,-0.005741537,0.013043951
0.66,0.00020358,0.00236487,0.076463578,-0.005740899,0.013044052
0.664,0.000198819,0.002362792,0.076462406,-0.005740967,0.013045259
0.668,0.000195835,0.002360411,0.076462133,-0.005741067,0.013046868
0.672,0.000195432,0.002359036,0.076461602,-0.005742576,0.013049550781249999
0.676,0.000195533,0.002359271,0.07646143,-0.005744252,0.013052567
0.68,0.000195399,0.002358098,0.076459992,-0.005745359,0.013053339
0.684,0.000193454,0.002355583,0.07645875,-0.005748041,0.013054513
0.688,0.000193488,0.002354175,0.07645868,-0.005752433,0.013055283203124999
0.692,0.000194661,0.002353907,0.076459148,-0.005755484,0.013056726
0.696,0.000195768,0.002354946,0.076459758,-0.005758669,0.013059709
0.7,0.000197779,0.002355281,0.076459617,-0.005761418,0.013059709
0.704,0.000196908,0.002354912,0.076458719,-0.005764269,0.013057999
0.708,0.000197612,0.002354946,0.07645868,-0.005765542,0.013056624999999999
0.712,0.000197578,0.002354007,0.076458781,-0.005765341,0.013058435546874999
0.716,0.000196807,0.002354108,0.076457242,-0.005764201,0.013059005
0.72,0.000195399,0.002354074,0.076455797,-0.005764838,0.013058469
0.724,0.000193387,0.002353236,0.076455094,-0.005766515,0.013056490234374999
0.728,0.00019322,0.002353203,0.076456398,-0.005768996,0.01305401
0.732,0.00019503,0.002354343,0.076456672,-0.005769465,0.013054513
0.736,0.000195332,0.002354644,0.076455898,-0.005768459,0.013055283203124999
0.74,0.000194259,0.002354678,0.076455398,-0.005768895,0.01305468
0.744,0.000191811,0.002352934,0.076454656,-0.005770236,0.013053975585937499
0.748,0.000190571,0.002350252,0.076453453,-0.005770337,0.013052064
0.752,0.000191242,0.002350051,0.076453516,-0.00577141,0.013051629
0.756,0.000191644,0.002351157,0.076453789,-0.005771074,0.013050355
0.76,0.000190873,0.00235166,0.076453219,-0.005770672,0.013049047851562499
0.764,0.000189565,0.00234938,0.076451945,-0.005771846,0.013047807
0.768,0.000186447,0.002347101,0.076450805,-0.005771175,0.013047907226562499
0.772,0.000187621,0.002347704,0.076451039,-0.005770169,0.013046131
0.776,0.000191141,0.002349146,0.076451539,-0.00577141,0.013043113
0.78,0.000192482,0.002347402,0.076450602,-0.005771778,0.013041771484374999
0.784,0.000189096,0.002344687,0.076449531,-0.005772147,0.013040967773437499
0.788,0.000187386,0.002343345,0.076449063,-0.005772583,0.013039324218749999
0.792,0.000189129,0.002343312,0.076449258,-0.005772583,0.013038888671874999
0.796,0.000189699,0.002344418,0.076449023,-0.00577255,0.013040196
0.8,0.000190739,0.002343748,0.076446742,-0.005773187,0.013039962
0.804,0.000189833,0.002343278,0.076446547,-0.00577788,0.013038285
0.808,0.00018809,0.002344184,0.076448453,-0.005782809,0.013038318359374999
0.812,0.000189029,0.002345022,0.076449391,-0.005784452,0.013039794
0.816,0.000189397,0.002346363,0.076449961,-0.00578643,0.013042107
0.82,0.000189364,0.00234586,0.076450102,-0.005789112,0.013043247
0.824,0.000187084,0.002343647,0.076448859,-0.005790621,0.013042912109374999
0.828,0.000187956,0.00234177,0.076448352,-0.005790152,0.013040967773437499
0.832,0.000186983,0.002341434,0.076448453,-0.005787268,0.013040028320312499
0.836,0.000184972,0.002342004,0.076447117,-0.005784217,0.013040095703124999
0.84,0.000184704,0.002340663,0.076444937,-0.005785324,0.013041403320312499
0.844,0.000186212,0.002340395,0.076443828,-0.005788643,0.013038252
0.848,0.000184335,0.002341099,0.076444062,-0.005790487,0.013036407
0.852,0.000182357,0.002341166,0.076445102,-0.00578975,0.013038151367187499
0.856,0.000182088,0.002340362,0.076444633,-0.005787939,0.013040196
0.86,0.000180412,0.00233788,0.076443195,-0.005786463,0.013040397460937499
0.864,0.000179775,0.002335735,0.07644168,-0.005787771,0.013039291
0.868,0.0001783,0.002335131,0.076443094,-0.005789649,0.013037548
0.872,0.000179607,0.002336338,0.076444563,-0.005790353,0.013036743
0.876,0.000181686,0.002338015,0.076444898,-0.005791359,0.013037179
0.88,0.000179004,0.002338182,0.076444602,-0.005791627,0.013038051
0.884,0.000175349,0.00233778,0.076444094,-0.005792968,0.013038486
0.888,0.000172902,0.002338283,0.076445773,-0.005794711,0.013040498
0.892,0.00017431,0.002337076,0.07644557,-0.005795416,0.013042844726562499
0.896,0.000176121,0.002336774,0.076444734,-0.005795684,0.013043213867187499
0.9,0.000176691,0.002336506,0.076443562,-0.00579622,0.013041268554687499
0.904,0.000176657,0.002334226,0.07644225,-0.00579793,0.013039425
0.908,0.000174511,0.002332382,0.076442391,-0.005799439,0.01303919
0.912,0.000173304,0.002332583,0.076443156,-0.005799841,0.013039525390624999
0.916,0.000175148,0.002332181,0.076440914,-0.005798232,0.013038956
0.92,0.000174109,0.00233084,0.07643907,-0.00579736,0.013038352539062499
0.924,0.000173338,0.002328996,0.076436891,-0.005796991,0.013036507812499999
0.928,0.000172533,0.002327521,0.076435648,-0.005798064,0.013033255859374999
0.932,0.00017146,0.002327856,0.076437625,-0.005800244,0.013034061
0.936,0.000171795,0.002329096,0.076438227,-0.005801719,0.01303624
0.94,0.000171024,0.002330035,0.076437797,-0.005803697,0.013035334960937499
0.944,0.000171997,0.002328862,0.076436219,-0.005806211,0.013032954101562499
0.948,0.000172365,0.002326448,0.076435281,-0.005807988,0.013031244140624999
0.952,0.000173707,0.002326783,0.076435953,-0.005812816,0.013031646
0.956,0.000175986,0.002328459,0.076436453,-0.005818114,0.01303272
0.96,0.000174914,0.002328694,0.076437523,-0.005820762,0.013033424
0.964,0.000171125,0.002326716,0.076437563,-0.005821333,0.013034261718749999
0.968,0.000169482,0.002325743,0.076436922,-0.005823981,0.013034798
0.972,0.000169549,0.002326917,0.076438195,-0.005826228,0.013035401
0.976,0.000170756,0.002328124,0.076438836,-0.005826228,0.013035401
0.98,0.000172064,0.002327487,0.076437563,-0.005828172,0.013033758789062499
0.984,0.000169717,0.002326313,0.076437492,-0.005831256,0.013032149
0.988,0.000167906,0.00232524,0.076437695,-0.005833604,0.013032786
0.992,0.000166733,0.002326414,0.076438664,-0.005833268,0.013033323242187499
0.996,0.000166062,0.002327152,0.076438695,-0.00583072,0.013033323242187499
1,0.000167537,0.002325877,0.076436789,-0.005830418,0.013032116
1.004,0.000164922,0.002324604,0.076435047,-0.005828239,0.013030037
1.008,0.000159491,0.002323329,0.076435047,-0.005825188,0.013029099
1.012,0.00015996,0.002322123,0.07643518,-0.005824316,0.013029635
1.016,0.000159692,0.002321318,0.076435312,-0.005824383,0.013030138
1.02,0.000156038,0.002320882,0.076434242,-0.005823411,0.013030003906249999
1.024,0.000152417,0.00232058,0.076433102,-0.005823377,0.013028495117187499
1.028,0.000152718,0.002319574,0.076431656,-0.005823244,0.013027355
1.032,0.000153121,0.002319407,0.0764325,-0.005823813,0.013026886
1.036,0.000152115,0.002320815,0.0764335,-0.005825725,0.013026986
1.04,0.000147823,0.002322257,0.076434977,-0.005828742,0.013027421874999999
1.044,0.000147689,0.002321821,0.076434477,-0.005830519,0.013025947265624999
1.048,0.000150036,0.002319809,0.076433234,-0.005833034,0.013023599609374999
1.052,0.00015064,0.002319574,0.076433031,-0.005835313,0.013023432617187499
1.056,0.00015131,0.002319876,0.076433,-0.005836219,0.013025175781249999
1.06,0.000151344,0.00231991,0.076431828,-0.005838197,0.013024841
1.064,0.000154059,0.002318367,0.076429914,-0.005841416,0.013022057617187499
1.068,0.000152919,0.002316892,0.076429547,-0.005843997,0.013021420898437499
1.072,0.000152785,0.00231763,0.076431055,-0.005846377,0.013022426757812499
1.076,0.000152584,0.002320044,0.076433031,-0.005848255,0.013022291992187499
1.08,0.00015064,0.002320513,0.076431453,-0.005849093,0.013022661
1.084,0.000144772,0.002319138,0.076431023,-0.005848959,0.013023063
1.088,0.000143465,0.002316021,0.076429578,-0.005848423,0.013022393
1.092,0.000147454,0.00231478,0.076428672,-0.005849831,0.013021387
1.096,0.000151142,0.00231478,0.076428336,-0.005852714,0.013021655
1.1,0.000152081,0.002313774,0.076426227,-0.005853049,0.013020516
1.104,0.000148796,0.002312567,0.076425219,-0.005853988,0.013020214
1.108,0.000146952,0.0023125,0.076425656,-0.005856469,0.013019744
1.112,0.000146415,0.002313405,0.076426727,-0.005857441,0.013019912
1.116,0.000147656,0.002314746,0.076426898,-0.005858582,0.013021253
1.12,0.0001496,0.002315283,0.076425586,-0.005861096,0.013021957
1.124,0.000150505,0.002311628,0.076423781,-0.005863175,0.013022627929687499
1.128,0.000148963,0.002309483,0.076423844,-0.005865622,0.013022158
1.132,0.000150036,0.002311327,0.076425086,-0.005868036,0.013022259
1.136,0.0001495,0.002312467,0.076425086,-0.005867098,0.013022896
1.14,0.000148393,0.002312668,0.076423945,-0.005866192,0.01302199
1.144,0.000147957,0.002311528,0.076421867,-0.005862672,0.013017028320312499
1.148,0.000146281,0.002311125,0.076422469,-0.005862806,0.013013708984374999
1.152,0.000147019,0.002311695,0.076422977,-0.005863946,0.01301267
1.156,0.00014903,0.002313003,0.076422609,-0.005864549,0.013012938
1.16,0.000145778,0.002312064,0.07642093,-0.005864315,0.013013776367187499
1.164,0.000144705,0.00230965,0.076419859,-0.005866024,0.013012838
1.168,0.0001438,0.002308745,0.076421195,-0.005867567,0.013011597
1.172,0.000142124,0.002309985,0.076422438,-0.005868104,0.013011194
1.176,0.000143297,0.002310857,0.076422703,-0.005869243,0.013011798
1.18,0.00014447,0.00231136,0.076421867,-0.005872026,0.013010927
1.184,0.000145309,0.002310824,0.076421633,-0.005874339,0.013008143554687499
1.188,0.000144504,0.002310421,0.076421633,-0.005875848,0.013007071
1.192,0.000144705,0.002310991,0.0764215,-0.005878363,0.013008379
1.196,0.000144806,0.002309918,0.07642143,-0.005878598,0.013010256
1.2,0.000143867,0.002309348,0.076420125,-0.005876619,0.013010155273437499
1.204,0.000141185,0.002308141,0.076418914,-0.005878363,0.013010725585937499
1.208,0.000139911,0.002307404,0.076418383,-0.005881548,0.013011262
1.212,0.000140816,0.002308678,0.076418852,-0.005882487,0.01300925
1.216,0.000143096,0.002310891,0.076420125,-0.005884062,0.013009451171874999
1.22,0.000141185,0.00231136,0.07641982,-0.005883996,0.013009987
1.224,0.000137597,0.002309416,0.076418078,-0.005880475,0.013008178
1.228,0.000132635,0.002307404,0.076417609,-0.005878363,0.013006166015624999
1.232,0.000128545,0.002307504,0.076419789,-0.005878296,0.013008143554687499
1.236,0.000128042,0.002307672,0.076419859,-0.005879167,0.013011161132812499
1.24,0.000129215,0.00230566,0.076417406,-0.005880844,0.013011664
1.244,0.000125729,0.002302743,0.076416266,-0.005881514,0.013011262
1.248,0.000123482,0.002301469,0.076415695,-0.005881179,0.013010155273437499
1.252,0.000122376,0.002301805,0.076416305,-0.005880039,0.013009184
1.256,0.000123583,0.002302945,0.076416438,-0.005881414,0.013009451171874999
1.26,0.000127204,0.002302341,0.076415266,-0.005885336,0.013008948242187499
1.264,0.000127539,0.00230224,0.076414695,-0.005889595,0.013006803
1.268,0.000125192,0.002303012,0.07641607,-0.005891338,0.013006835937499999
1.272,0.000125427,0.002302844,0.076416234,-0.005891372,0.013008178
1.276,0.000127338,0.002302375,0.076415969,-0.005892109,0.013009284179687499
1.28,0.000126734,0.002301134,0.076415227,-0.00589117,0.01300858
1.284,0.000125092,0.00229976,0.076413148,-0.005890332,0.01300687
1.288,0.000121839,0.002299692,0.076413992,-0.005890601,0.013004255
1.292,0.000122845,0.00229986,0.076414727,-0.005891104,0.013003081054687499
1.296,0.000124421,0.002299324,0.076413688,-0.005890701,0.01300174
1.3,0.000124756,0.002299324,0.076413383,-0.005890601,0.012999594
1.304,0.000123516,0.002298117,0.076413117,-0.005890869,0.012998454
1.308,0.000122141,0.00229634,0.076411711,-0.005889863,0.012996577148437499
1.312,0.000122644,0.002297848,0.076413047,-0.005891941,0.012996241210937499
1.316,0.000123985,0.002299189,0.076412242,-0.005893551,0.012997583007812499
1.32,0.000120733,0.002298284,0.076411914,-0.005895898,0.012999560546874999
1.324,0.000117112,0.002297916,0.07641218,-0.00589915,0.012998755859374999
1.328,0.000112418,0.002298586,0.076413047,-0.005899888,0.012997851
1.332,0.000112016,0.00229862,0.076413617,-0.005898714,0.012999024
1.336,0.000114698,0.002298418,0.076411977,-0.005898043,0.013000734
1.34,0.000115301,0.002297614,0.076409531,-0.005897809,0.012999729
1.344,0.000114966,0.002297044,0.076408523,-0.00589982,0.012996509765624999
1.348,0.000115301,0.002297882,0.076409461,-0.005903978,0.012994666
1.352,0.000112519,0.002298888,0.076411977,-0.005905118,0.01299433
1.356,0.000112854,0.002298653,0.076411914,-0.005903576,0.012994430664062499
1.36,0.000112351,0.002298184,0.076411438,-0.005903576,0.01299366
1.364,0.000108462,0.002299592,0.076411539,-0.005906325,0.012993693359374999
1.368,0.00010521,0.002299625,0.076412148,-0.00590837,0.01299433
1.372,0.000107791,0.00229929,0.076411406,-0.005909275,0.012994229492187499
1.376,0.000110272,0.002299726,0.076411977,-0.005909543,0.012994163
1.38,0.000110138,0.002298854,0.076411375,-0.005908739,0.012993726562499999
1.384,0.000110306,0.002297614,0.07641,-0.005909007,0.012991581
1.388,0.00011168,0.002298016,0.07641057,-0.005914204,0.012989904296874999
1.392,0.000111546,0.002300833,0.076414391,-0.005919132,0.012990844
1.396,0.00011168,0.002304587,0.07641493,-0.005921379,0.012992051
1.4,0.000115134,0.002304956,0.07641325,-0.005922519,0.012991916015624999
1.404,0.000111915,0.002302609,0.076411914,-0.005921178,0.012991883
1.408,0.000108831,0.002299625,0.076411641,-0.005918026,0.012991111328124999
1.412,0.000110507,0.002297983,0.076410734,-0.005914975,0.012990374
1.416,0.000111211,0.002297446,0.076410305,-0.005914237,0.012991045
1.42,0.000111848,0.002297614,0.076410305,-0.005917154,0.012991279
1.424,0.000111245,0.002297111,0.076411813,-0.005922016,0.012991078
1.428,0.000110306,0.002297245,0.076414258,-0.00592614,0.012991581
1.432,0.000107691,0.002299089,0.076415227,-0.005926005,0.012991815
1.436,0.000107825,0.00229976,0.076413922,-0.005924798,0.01299195
1.44,0.000108227,0.002299592,0.076413016,-0.00592386,0.012990206
1.444,0.000105847,0.002297949,0.076411875,-0.005923189,0.012988229
1.448,0.000104673,0.002296407,0.076411539,-0.005924966,0.012987189453124999
1.452,0.000102527,0.002297781,0.076413383,-0.005927212,0.012988362304687499
1.456,0.000106215,0.00229929,0.076413016,-0.005928889,0.012989703
1.46,0.000108596,0.002297279,0.076411375,-0.00592966,0.0129892
1.464,0.00010417,0.002295367,0.076410906,-0.005929995,0.012987759
1.468,0.000103332,0.002294462,0.076410773,-0.005931839,0.012985042968749999
1.472,0.000103466,0.002294831,0.076411273,-0.005932644,0.012985110351562499
1.476,9.98787612915039e-05,0.002295501,0.076411813,-0.005930129,0.012987692382812499
1.48,9.763240814208984e-05,0.002294999,0.076411141,-0.005928252,0.012987356445312499
1.484,9.880587768554687e-05,0.00229406,0.076409969,-0.005931705,0.012986049
1.488,0.00010236,0.00229406,0.076408789,-0.00593479,0.012984272
1.492,0.000103097,0.002295032,0.076408695,-0.005935594,0.012984037109374999
1.496,0.000104137,0.00229577,0.076408453,-0.005936097,0.012985211
1.5,0.000102192,0.002295703,0.076408555,-0.005937237,0.012987021
1.504,9.877234649658203e-05,0.002294596,0.076408188,-0.005939417,0.012987189453124999
1.508,9.7699462890625e-05,0.00229349,0.076407953,-0.00594173,0.012987055
1.512,9.897351074218749e-05,0.002294999,0.076408859,-0.005942971,0.012987391
1.516,9.790062713623046e-05,0.00229815,0.076411406,-0.005944144,0.012987491210937499
1.52,9.806826782226562e-05,0.002298418,0.076411406,-0.005942836,0.012985882
1.524,9.696185302734374e-05,0.002296273,0.076410164,-0.005944178,0.012985847656249999
1.528,9.652599334716796e-05,0.002295401,0.076409633,-0.00594743,0.012986787
1.532,9.548664093017578e-05,0.002296641,0.076410367,-0.005948436,0.0129892
1.536,9.370967864990234e-05,0.002296273,0.076409258,-0.00594582,0.012992218
1.54,9.146332550048827e-05,0.002293725,0.076407414,-0.005943071,0.012992921874999999
1.544,8.951872253417968e-05,0.002289467,0.076404063,-0.005942132,0.012993157
1.548,8.566304779052734e-05,0.002287388,0.076402922,-0.00594515,0.012995436523437499
1.552,8.27126235961914e-05,0.002287455,0.076404766,-0.005946524,0.012997515624999999
1.556,8.626654815673828e-05,0.00228836,0.076406008,-0.005950279,0.013000264648437499
1.56,8.797645568847656e-05,0.002286851,0.076404063,-0.005955074,0.013002209
1.564,8.559599304199218e-05,0.002284639,0.076401648,-0.005956314,0.013003249
1.568,8.492544555664062e-05,0.002283297,0.076399938,-0.005958192,0.013003718
1.572,8.811056518554688e-05,0.002282091,0.076398898,-0.00596198,0.013005628906249999
1.576,8.87140655517578e-05,0.002281051,0.076397328,-0.005963389,0.013009383789062499
1.58,8.636712646484375e-05,0.002279475,0.076395617,-0.005964462,0.013010759
1.584,8.170679473876952e-05,0.002277497,0.076394812,-0.005966607,0.013010792
1.588,8.046627044677734e-05,0.002275452,0.076393602,-0.005966306,0.013010759
1.592,7.932633209228516e-05,0.002274983,0.07639243,-0.005966205,0.013011563
1.596,7.758289337158202e-05,0.002277162,0.076392898,-0.005966875,0.013012502
1.6,7.781758880615234e-05,0.002276726,0.076390383,-0.005966171,0.013011094
1.604,7.637590026855468e-05,0.002275117,0.076389578,-0.005966473,0.013008345
1.608,7.654354095458984e-05,0.00227505,0.076390891,-0.005969491,0.013006903320312499
1.612,7.791817474365234e-05,0.002275351,0.076391055,-0.005971067,0.013007071
1.616,7.60406265258789e-05,0.002277128,0.076391828,-0.005971301,0.013007976562499999
1.62,7.436424255371093e-05,0.002276391,0.076390953,-0.005970094,0.01300677
1.624,7.372721862792968e-05,0.002274379,0.076390188,-0.005971402,0.013004589843749999
1.628,7.070973205566406e-05,0.002275117,0.076391359,-0.005973816,0.013003315429687499
1.632,6.970390319824218e-05,0.002277631,0.076392633,-0.005972643,0.013002545
1.636,7.020681762695312e-05,0.002278,0.076392297,-0.005971335,0.013002444
1.64,6.920098876953125e-05,0.002277833,0.076393102,-0.005971301,0.013001303710937499
1.644,6.826222229003906e-05,0.002277196,0.076392602,-0.005972273,0.012999527
1.648,6.792694091796874e-05,0.002276693,0.076392836,-0.005975124,0.012997482
1.652,7.205084228515624e-05,0.002277028,0.076393602,-0.00597851,0.012996141
1.656,7.372721862792968e-05,0.002277229,0.076393977,-0.005981393,0.012996678
1.66,7.362664031982421e-05,0.002277262,0.076394641,-0.005986657,0.012997749999999999
1.664,7.020681762695312e-05,0.002276156,0.076394211,-0.005988266,0.012997684
1.668,6.578117370605468e-05,0.002275385,0.076393367,-0.005985752,0.012996175
1.672,6.594881439208984e-05,0.00227572,0.07639357,-0.005985115,0.012996241210937499
1.676,6.718933868408202e-05,0.002276055,0.076394141,-0.00598669,0.012998689
1.68,6.484239959716796e-05,0.002276424,0.076393875,-0.00599068,0.0130007
1.684,6.0617923736572266e-05,0.002276961,0.076394375,-0.005994502,0.013001136718749999
1.688,6.179138946533203e-05,0.00227686,0.076393938,-0.005997084,0.012999761718749999
1.692,6.511062622070312e-05,0.002274513,0.076393367,-0.005997218,0.012998152
1.696,6.266310882568359e-05,0.002274279,0.076393305,-0.005995207,0.012998387695312499
1.7,6.195903015136718e-05,0.002274983,0.076392664,-0.005997017,0.012997985
1.704,6.0684978485107416e-05,0.002274446,0.076391758,-0.006001107,0.012998454
1.708,5.813687896728515e-05,0.002272938,0.076392031,-0.006002817,0.01299889
1.712,5.94444580078125e-05,0.002272468,0.076391797,-0.006002683,0.012999627929687499
1.716,6.0383232116699215e-05,0.002271596,0.076390523,-0.00600275,0.012999829101562499
1.72,5.827099227905273e-05,0.002270289,0.076389516,-0.006002717,0.013000365
1.724,5.41470947265625e-05,0.002269384,0.076388242,-0.006002415,0.012999292
1.728,5.41470947265625e-05,0.00226925,0.076387805,-0.006004427,0.012996945
1.732,5.746632766723632e-05,0.002269518,0.076387734,-0.006006438,0.012996342
1.736,5.766749572753906e-05,0.002270255,0.076387867,-0.006010093,0.012998957
1.74,5.726516342163086e-05,0.002270825,0.076388008,-0.006014183,0.012999326171874999
1.744,5.394593048095703e-05,0.002270356,0.076387234,-0.006012875,0.012998085937499999
1.748,5.086138916015625e-05,0.002267674,0.076386227,-0.006009791,0.012996477
1.752,4.734098815917968e-05,0.002266366,0.076387062,-0.006008249,0.012996342
1.756,4.848092651367187e-05,0.0022664,0.076387773,-0.006008182,0.012995939453124999
1.76,4.9822032928466796e-05,0.002265662,0.076387203,-0.00600788,0.012993593
1.764,5.039200210571289e-05,0.002264053,0.076385758,-0.006010093,0.012991212
1.768,5.015731048583984e-05,0.00226298,0.076385656,-0.006013546,0.012990105468749999
1.772,5.176663208007812e-05,0.002263382,0.076385187,-0.006014753,0.012988295
1.776,5.351007080078125e-05,0.002263717,0.076384453,-0.006014116,0.012987021
1.78,5.267187881469726e-05,0.00226298,0.076383578,-0.006014217,0.012986451
1.784,5.042552947998047e-05,0.00226127,0.076382,-0.006014552,0.012984942
1.788,4.757568359375e-05,0.00225956,0.076381602,-0.00601482,0.012983937
1.792,4.881620407104492e-05,0.002259795,0.076382102,-0.006015356,0.012982696
1.796,4.824623489379883e-05,0.002261404,0.076382641,-0.006014083,0.012982193
1.8,4.472583389282226e-05,0.002261337,0.076381836,-0.006013144,0.012982595703124999
1.804,4.43570327758789e-05,0.00226013,0.076380195,-0.006015155,0.012980081
1.808,4.6066940307617186e-05,0.002258286,0.076378883,-0.006017167,0.012979041992187499
1.812,4.667043685913086e-05,0.002256811,0.076378688,-0.006018911,0.012980416
1.816,4.8045070648193355e-05,0.002257112,0.076378352,-0.006020486,0.012982528320312499
1.82,4.5798717498779294e-05,0.002256542,0.076377711,-0.006019212,0.012983367187499999
1.824,4.120543670654297e-05,0.002255302,0.076377141,-0.006019782,0.012984071
1.828,4.1238964080810546e-05,0.002254196,0.076377008,-0.00602109,0.012983937
1.832,4.2781234741210935e-05,0.00225433,0.076376844,-0.006021056,0.012983870117187499
1.836,4.25800666809082e-05,0.002255268,0.076377008,-0.00602052,0.012984406249999999
1.84,4.3854118347167966e-05,0.002254598,0.076376102,-0.006020587,0.012982563
1.844,4.133954620361328e-05,0.002252083,0.076374727,-0.006019749,0.012980818
1.848,3.765150833129882e-05,0.002252754,0.076375969,-0.006022263,0.012978438
1.852,3.614276504516601e-05,0.002255168,0.076378016,-0.00602451,0.012979646
1.856,3.614276504516601e-05,0.002255503,0.076377781,-0.006024342,0.012982160156249999
1.86,3.614276504516601e-05,0.002254698,0.07637825,-0.006023571,0.012982663085937499
1.864,3.667920684814453e-05,0.002253357,0.076376805,-0.006024342,0.012981925
1.868,3.7081539154052736e-05,0.002251647,0.076376844,-0.006026823,0.012980383
1.872,3.7517398834228515e-05,0.00225158,0.076377211,-0.006028667,0.012980416
1.876,3.848970031738281e-05,0.002253089,0.076377008,-0.006030008,0.012981086914062499
1.88,3.9361415863037106e-05,0.002253458,0.076377172,-0.006031316,0.012980483
1.884,3.808736801147461e-05,0.002252318,0.076376875,-0.006031148,0.012979846679687499
1.888,3.5002826690673824e-05,0.002252016,0.076378219,-0.006032757,0.01297931
1.892,3.128126335144043e-05,0.002251849,0.076380531,-0.006032825,0.012980182
1.896,3.1314790725708007e-05,0.002253089,0.076381469,-0.006033529,0.012981959
1.9,3.2253562927246095e-05,0.002253156,0.076380695,-0.006036345,0.012982595703124999
1.904,2.994015884399414e-05,0.002252687,0.076381602,-0.006040167,0.012982193
1.908,2.682209014892578e-05,0.002253357,0.076383445,-0.006041072,0.012982428
1.912,2.5179237365722656e-05,0.002254833,0.076385492,-0.006041575,0.012983367187499999
1.916,3.0275434494018554e-05,0.002255335,0.076384219,-0.006042346,0.012982629
1.92,3.14824275970459e-05,0.002254967,0.076382875,-0.006044257,0.012983132
1.924,2.769380760192871e-05,0.00225386,0.076382711,-0.006046235,0.012984171874999999
1.928,2.745911407470703e-05,0.002252553,0.076382273,-0.006046604,0.012982696
1.932,2.9370189666748044e-05,0.002250776,0.076381367,-0.006045229,0.012981657
1.936,2.7760864257812498e-05,0.002249971,0.076380898,-0.006043822,0.012981154
1.94,2.7123838424682614e-05,0.002249133,0.076379352,-0.006043386,0.012980148
1.944,2.524629211425781e-05,0.002247825,0.076378117,-0.006044224,0.012978673
1.948,2.440810203552246e-05,0.002247054,0.076378547,-0.006047074,0.012977164
1.952,2.377107810974121e-05,0.002246484,0.076378281,-0.006046604,0.012977231
1.956,2.39387149810791e-05,0.002246719,0.076377609,-0.006047107,0.012977264648437499
1.96,2.5179237365722656e-05,0.002247959,0.076377344,-0.00604989,0.012975219726562499
1.964,2.4978071212768552e-05,0.002247725,0.076377211,-0.006052237,0.012973778320312499
1.968,2.2731721878051757e-05,0.002245948,0.07637768,-0.006053276,0.012974281249999999
1.972,2.507865524291992e-05,0.002246987,0.076380125,-0.00605683,0.012973979
1.976,2.7928501129150388e-05,0.002247691,0.076380664,-0.006059814,0.012974985
1.98,2.8096139907836913e-05,0.002247322,0.076378984,-0.006061222,0.012974851
1.984,2.7123838424682614e-05,0.002245646,0.076378414,-0.00606253,0.01297475
1.988,2.6520341873168945e-05,0.002244472,0.076377945,-0.006062429,0.01297361
1.992,2.6788562774658203e-05,0.002245948,0.076380156,-0.00606538,0.012974482
1.996,2.947077178955078e-05,0.002247624,0.076380828,-0.006068397,0.012974649414062499
2,2.7325004577636718e-05,0.002248496,0.07638093,-0.006069738,0.012974314
2.004,2.336874580383301e-05,0.002247658,0.076380227,-0.006067593,0.012974314
2.008,2.239644622802734e-05,0.002246752,0.076380063,-0.00606719,0.012972470703124999
2.012,2.2698194503784178e-05,0.002246518,0.076380594,-0.006068263,0.012972470703124999
2.016,2.4374574661254882e-05,0.002247155,0.076380156,-0.006070577,0.012973275390624999
2.02,2.3268163681030272e-05,0.002246484,0.076379555,-0.00607118,0.012973442382812499
2.024,2.2329389572143553e-05,0.002243768,0.076377609,-0.006071482,0.012971867
2.028,2.0753591537475584e-05,0.00224112,0.076376203,-0.006070375,0.012970324218749999
2.032,1.88425178527832e-05,0.002240986,0.076375633,-0.006069638,0.012970492
2.036,2.1424144744873046e-05,0.002242025,0.076375195,-0.00607061,0.012969587
2.04,1.9311904907226562e-05,0.002241354,0.076374898,-0.006072052,0.012969922
2.044,1.9010156631469726e-05,0.002239242,0.076372914,-0.006072119,0.012967776
2.048,1.6529113769531248e-05,0.002238069,0.076373086,-0.006070744,0.012965698242187499
2.052,1.5053897857666015e-05,0.002237365,0.076373758,-0.006070845,0.012966469
2.056,1.7501413345336912e-05,0.002237767,0.076372953,-0.006073494,0.012968179
2.06,1.8138439178466795e-05,0.002237667,0.076372547,-0.006076913,0.012967743
2.064,1.887604522705078e-05,0.002237935,0.076373156,-0.006081104,0.012966101
2.068,1.88425178527832e-05,0.002238773,0.076373758,-0.006084122,0.012966
2.072,1.911073875427246e-05,0.002240013,0.076374797,-0.006084457,0.012965362304687499
2.076,1.847371482849121e-05,0.002241455,0.076375703,-0.006083384,0.012964189453124999
2.08,2.0552427291870115e-05,0.002241086,0.07637543,-0.006085463,0.012964491
2.084,1.9244850158691405e-05,0.002239745,0.076374594,-0.006087508,0.012964424
2.088,1.7266719818115233e-05,0.002238404,0.076374961,-0.006085597,0.012961574218749999
2.092,1.5020370483398438e-05,0.002237096,0.076376367,-0.006082378,0.012961406
2.096,1.2505799293518065e-05,0.002236258,0.076375969,-0.006078154,0.012962211
2.1,9.655952453613281e-06,0.002235152,0.076374727,-0.006075438,0.012961708
2.104,7.007270812988281e-06,0.002233844,0.076373891,-0.006075337,0.012960802734374999
2.108,6.604939460754394e-06,0.0022319,0.076372516,-0.00607574,0.012959965
2.112,7.007270812988281e-06,0.002231397,0.076373188,-0.006076511,0.012959427734374999
2.116,8.482485771179198e-06,0.002231631,0.076373758,-0.006075606,0.01295812
2.12,8.884817123413085e-06,0.002232738,0.076373586,-0.006077852,0.01295735
2.124,6.236135959625244e-06,0.00223314,0.076374328,-0.006081238,0.012957047851562499
2.128,4.190951347351074e-06,0.002232939,0.076375836,-0.006081741,0.012955707
2.132,5.397945404052734e-06,0.002233408,0.076377242,-0.006081574,0.012954835
2.136,7.644295692443848e-06,0.002232972,0.076376805,-0.006081306,0.012955137
2.14,3.1515955924987793e-06,0.002231531,0.076375664,-0.006079663,0.012954868
2.144,-1.11E-06,0.002230156,0.076374156,-0.006080199,0.012953527
2.148,-1.31E-06,0.002229385,0.076374828,-0.006084155,0.012952823
2.152,6.705522537231445e-07,0.002229519,0.076377609,-0.006090056,0.012954265
2.156,5.129724502563476e-06,0.002230693,0.076379555,-0.006093107,0.012955137
2.16,7.778406143188477e-06,0.002231833,0.076379727,-0.006093811,0.012954601
2.164,1.0326504707336426e-05,0.002230927,0.076379453,-0.006096795,0.01295279
2.168,9.488314628601074e-06,0.002229821,0.076380391,-0.006101154,0.012953092
2.172,6.739049911499023e-06,0.002231162,0.076382406,-0.006101321,0.012955841
2.176,4.995614051818847e-06,0.002231967,0.076382906,-0.006101154,0.012957986328124999
2.18,3.553926944732666e-06,0.002231933,0.076383242,-0.006104037,0.012958791015624999
2.184,1.0058283805847168e-06,0.00223086,0.076382906,-0.006104741,0.012957014
2.188,-1.54E-06,0.002230592,0.076382875,-0.00610558,0.012955471679687499
2.192,-6.71E-08,0.00223019,0.076383375,-0.006106485,0.012954298828124999
2.196,3.7550926208496094e-06,0.002229419,0.076383211,-0.006107658,0.012954801757812499
2.2,3.889203071594238e-06,0.00222915,0.076383813,-0.006110642,0.012954734374999999
2.204,1.776963472366333e-06,0.002228547,0.076383141,-0.006111111,0.012953359
2.208,1.341104507446289e-07,0.002226569,0.076382742,-0.006111547,0.012952756
2.212,-2.68E-07,0.002226233,0.076383945,-0.006110776,0.012953158203124999
2.216,3.688037395477295e-07,0.002226535,0.076384555,-0.006108262,0.012952521
2.22,2.4139881134033203e-06,0.002226099,0.07638418,-0.006109301,0.012952019
2.224,2.6151537895202637e-06,0.002225664,0.076383781,-0.006111312,0.012951583
2.228,4.6938657760620117e-07,0.002225462,0.076384086,-0.006112017,0.012950275
2.232,-2.11E-06,0.002225999,0.076386359,-0.006111983,0.012950074
2.236,9.387731552124023e-07,0.002227642,0.076387367,-0.006113492,0.012949772
2.24,-2.01E-07,0.002227977,0.076387398,-0.006115604,0.012951146484374999
2.244,-2.28E-06,0.002226535,0.076387203,-0.006117784,0.012952119
2.248,-3.32E-06,0.002225563,0.076386734,-0.006117314,0.012950844726562499
2.252,2.0116567611694336e-07,0.002223182,0.076385828,-0.00611775,0.012950409179687499
2.256,-1.14E-06,0.002222177,0.076386398,-0.006119191,0.012952353515624999
2.26,-3.32E-06,0.002221305,0.076385555,-0.006118219,0.012952823
2.264,-5.57E-06,0.002221003,0.07638425,-0.00611718,0.01295004
2.268,-7.24E-06,0.002220299,0.07638418,-0.006118354,0.012947459
2.272,-8.08E-06,0.002220567,0.076384984,-0.00611842,0.012946419
2.276,-9.32E-06,0.002222311,0.076385758,-0.006117851,0.012945648437499999
2.28,-1.05E-05,0.00222382,0.076386328,-0.00612003,0.012945648437499999
2.284,-1.04E-05,0.002222579,0.076386898,-0.006123047,0.012945213
2.288,-9.42E-06,0.002221707,0.076387203,-0.006125227,0.012944743
2.292,-1.02E-05,0.00222221,0.076387133,-0.006125696,0.012946453
2.296,-1.08E-05,0.002223685,0.076387836,-0.006127272,0.012947962
2.3,-1.14E-05,0.002224323,0.076387703,-0.006128881,0.012948498
2.304,-1.49E-05,0.002223384,0.076387234,-0.006127641,0.012947592773437499
2.308,-1.50E-05,0.00222107,0.076386562,-0.006127238,0.012945515
2.312,-1.57E-05,0.002222579,0.076388773,-0.006129652,0.01294595
2.316,-1.30E-05,0.002225764,0.07638975,-0.006133173,0.012947995
2.32,-1.34E-05,0.002226837,0.076389852,-0.006133407,0.012948063
2.324,-1.52E-05,0.002225932,0.07638918,-0.006133072,0.012945682
2.328,-1.79E-05,0.002225328,0.076389984,-0.006134011,0.012943972
2.332,-1.75E-05,0.002225596,0.076390953,-0.006134715,0.012943469
2.336,-1.46E-05,0.002225965,0.076391422,-0.00613552,0.012943770507812499
2.34,-1.40E-05,0.002225764,0.076391188,-0.006137799,0.012943871
2.344,-1.66E-05,0.002224323,0.076389414,-0.006138202,0.012943267578124999
2.348,-1.96E-05,0.00222325,0.076389078,-0.006138302,0.012942933
2.352,-2.18E-05,0.002222009,0.076389445,-0.006139107,0.012944006
2.356,-2.19E-05,0.002223182,0.076390422,-0.006139241,0.012944643
2.36,-2.05E-05,0.002223384,0.076390383,-0.006141085,0.012944609374999999
2.364,-2.07E-05,0.002223182,0.076390688,-0.006144505,0.012942799
2.368,-2.41E-05,0.002221942,0.076391227,-0.006145846,0.012942799
2.372,-2.39E-05,0.002222445,0.076390922,-0.006147388,0.012943569335937499
2.376,-2.32E-05,0.002223652,0.076390617,-0.006147254,0.012944509
2.38,-2.30E-05,0.002223786,0.076390086,-0.006146852,0.012944173
2.384,-2.28E-05,0.002222244,0.076388375,-0.006147086,0.012941894
2.388,-2.43E-05,0.002221238,0.076389313,-0.006148595,0.012941391
2.392,-2.52E-05,0.002221439,0.076390188,-0.006148763,0.012940854
2.396,-2.50E-05,0.002222344,0.076390281,-0.006149065,0.012940787109374999
2.4,-2.67E-05,0.002223082,0.076390484,-0.006150607,0.012940249999999999
2.404,-2.80E-05,0.002222143,0.076389414,-0.00615054,0.012938439453124999
2.408,-3.06E-05,0.002220467,0.076390086,-0.006152015,0.012938574218749999
2.412,-3.10E-05,0.002220769,0.076392266,-0.006154832,0.012939445312499999
2.416,-2.84E-05,0.002222478,0.076391961,-0.0061552,0.012939714
2.42,-2.95E-05,0.002221741,0.076390891,-0.006155368,0.012940451171874999
2.424,-3.22E-05,0.00221926,0.076391086,-0.006157413,0.012941391
2.428,-3.46E-05,0.002217516,0.076391086,-0.006158654,0.01294243
2.432,-3.57E-05,0.002217751,0.076392461,-0.006160967,0.012944106445312499
2.436,-3.62E-05,0.00221879,0.076393703,-0.006162912,0.012946688
2.44,-3.71E-05,0.002218623,0.076392898,-0.006163582,0.012947258
2.444,-3.76E-05,0.00221698,0.076390281,-0.006162744,0.01294662
2.448,-3.77E-05,0.002215505,0.076389648,-0.00616546,0.012944106445312499
2.452,-3.78E-05,0.002216477,0.076390992,-0.006167639,0.012942966
2.456,-3.83E-05,0.00221698,0.076391328,-0.00616727,0.012944006
2.46,-3.79E-05,0.002215773,0.076389047,-0.006167438,0.01294548
2.464,-4.08E-05,0.002213191,0.076386734,-0.0061666,0.012946486
2.468,-4.16E-05,0.002211012,0.076387031,-0.006169114,0.012947324218749999
2.472,-4.15E-05,0.002209503,0.076387836,-0.006172802,0.012949303
2.476,-4.05E-05,0.002209436,0.076387906,-0.006175954,0.012953661132812499
2.48,-3.99E-05,0.00220843,0.076387539,-0.006179005,0.012957986328124999
2.484,-4.18E-05,0.00220615,0.076386164,-0.006182458,0.012959629
2.488,-4.36E-05,0.002204642,0.076384891,-0.006183564,0.012961607
2.492,-4.24E-05,0.002202898,0.076383813,-0.006184135,0.012964223
2.496,-4.23E-05,0.002202261,0.076383344,-0.006185845,0.012967776
2.5,-4.18E-05,0.002201591,0.076382539,-0.006188594,0.012971163
2.504,-4.36E-05,0.002199579,0.076380461,-0.006189164,0.012972068
2.508,-4.43E-05,0.002197266,0.076378984,-0.00619074,0.01297237
2.512,-4.72E-05,0.002196059,0.076380563,-0.006190605,0.012974583
2.516,-4.93E-05,0.002195556,0.076380797,-0.006188829,0.012976997
2.52,-5.03E-05,0.00219512,0.076379891,-0.006190136,0.012977868
2.524,-5.04E-05,0.00219351,0.076378648,-0.006191108,0.012976561
2.528,-5.18E-05,0.002192404,0.076378953,-0.006191678,0.012975856
2.532,-5.20E-05,0.002192505,0.076380227,-0.00619255,0.012977667
2.536,-5.13E-05,0.002193343,0.076381867,-0.006193354,0.012979779296874999
2.54,-5.20E-05,0.002194047,0.076381836,-0.006192014,0.012979276367187499
2.544,-5.36E-05,0.002192136,0.076381938,-0.006193053,0.012977901
2.548,-5.41E-05,0.00219113,0.076382945,-0.006197144,0.012977901
2.552,-5.45E-05,0.002192303,0.076384922,-0.006199356,0.012978404
2.556,-5.25E-05,0.002194147,0.07638482,-0.006197579,0.012978304
2.56,-5.35E-05,0.002193108,0.076383375,-0.006194696,0.012977901
2.564,-5.62E-05,0.002190728,0.076383344,-0.006194897,0.012975622
2.568,-5.72E-05,0.00218999,0.076384281,-0.006195836,0.012972873
2.572,-5.63E-05,0.002190292,0.076386695,-0.006198652,0.012972134765624999
2.576,-5.44E-05,0.002192706,0.076389148,-0.006200832,0.012971967773437499
2.58,-5.37E-05,0.002194919,0.076389414,-0.006202005,0.012970827
2.584,-5.15E-05,0.002193309,0.076387836,-0.006201234,0.012968749
2.588,-5.41E-05,0.002191935,0.076388578,-0.006200563,0.012966268
2.592,-5.59E-05,0.002191465,0.076389953,-0.006201301,0.012966436
2.596,-5.42E-05,0.002191063,0.076390586,-0.006203246,0.01296724
2.6,-5.31E-05,0.002191063,0.076389516,-0.006204754,0.012966167
2.604,-5.56E-05,0.002189353,0.076388406,-0.006204721,0.012965060546874999
2.608,-5.95E-05,0.002188213,0.076389008,-0.006206129,0.01296543
2.612,-5.80E-05,0.002188951,0.076390422,-0.006207771,0.012964491
2.616,-5.68E-05,0.00218942,0.076390719,-0.006207302,0.012963217
2.62,-5.81E-05,0.002190191,0.076389242,-0.006205089,0.012962948
2.624,-5.85E-05,0.002189856,0.076388711,-0.006207269,0.012961977
2.628,-6.07E-05,0.002189219,0.076391125,-0.006212734,0.012961775
2.632,-5.92E-05,0.002190158,0.076392797,-0.006216422,0.012963217
2.636,-5.72E-05,0.002190828,0.076393539,-0.006218299,0.012964491
2.64,-5.64E-05,0.002190895,0.076393602,-0.006220244,0.012965195312499999
2.644,-5.71E-05,0.002189186,0.076391797,-0.006220713,0.012965161
2.648,-6.04E-05,0.002188314,0.076390789,-0.006221048,0.012965296
2.652,-6.27E-05,0.002188582,0.076391492,-0.006220076,0.012964658
2.656,-6.22E-05,0.002188381,0.076391125,-0.006220445,0.012966
2.66,-5.97E-05,0.002187207,0.076389914,-0.006223697,0.01296667
2.664,-6.02E-05,0.002186704,0.076389109,-0.006226581,0.012966
2.668,-5.98E-05,0.002186067,0.076388742,-0.00623104,0.012964557617187499
2.672,-5.80E-05,0.00218647,0.076389445,-0.006233554,0.01296372
2.676,-5.60E-05,0.002186872,0.076389852,-0.006234258,0.012963048828124999
2.68,-5.59E-05,0.002186906,0.076391258,-0.006237611,0.012963184
2.684,-6.02E-05,0.002186302,0.076391828,-0.006238818,0.012963787
2.688,-6.23E-05,0.002185464,0.076391023,-0.00623865,0.012962646
2.692,-6.29E-05,0.002184257,0.076391625,-0.006236103,0.012961138
2.696,-6.44E-05,0.002185531,0.076392133,-0.006229699,0.012959293945312499
2.7,-6.41E-05,0.002185766,0.076390016,-0.006226681,0.012957182
2.704,-6.66E-05,0.002183687,0.07638807,-0.006226145,0.012954835
2.708,-6.83E-05,0.00218201,0.076387266,-0.006224435,0.012952388
2.712,-7.00E-05,0.002181977,0.076388914,-0.006224033,0.012951549
2.716,-7.05E-05,0.00218362,0.076390219,-0.006226379,0.012953225585937499
2.72,-6.77E-05,0.002185129,0.076390484,-0.006229229,0.012951985351562499
2.724,-6.49E-05,0.002185263,0.076389781,-0.006234024,0.012950241
2.728,-6.42E-05,0.002182949,0.076389547,-0.006238785,0.012949437
2.732,-6.39E-05,0.002181843,0.076390586,-0.006241131,0.012949335937499999
2.736,-6.18E-05,0.00218191,0.076390617,-0.006242037,0.012950309
2.74,-6.28E-05,0.002181675,0.076390117,-0.006241467,0.012949638
2.744,-6.49E-05,0.002179697,0.076388945,-0.006240394,0.012947995
2.748,-6.73E-05,0.002177317,0.076387672,-0.006240562,0.012946654296874999
2.752,-6.87E-05,0.00217554,0.076387438,-0.006239925,0.012946453
2.756,-6.80E-05,0.002175104,0.076387805,-0.006238852,0.012945615
2.76,-6.70E-05,0.002175439,0.076387266,-0.006239221,0.012944006
2.764,-6.78E-05,0.002174333,0.07638693,-0.006240528,0.012943100585937499
2.768,-6.96E-05,0.002174165,0.0763875,-0.006242137,0.012943100585937499
2.772,-6.74E-05,0.002174232,0.076388609,-0.006247267,0.012944006
2.776,-6.35E-05,0.002174702,0.076389547,-0.00625015,0.012944006
2.78,-6.28E-05,0.002174769,0.076389008,-0.00625005,0.012944441
2.784,-6.49E-05,0.002173998,0.076388977,-0.006250687,0.012943770507812499
2.788,-6.68E-05,0.002173025,0.076389148,-0.006252028,0.012943134
2.792,-6.73E-05,0.002171651,0.07638918,-0.006252699,0.012943770507812499
2.796,-6.66E-05,0.002171785,0.076387906,-0.006250586,0.012943871
2.8,-6.74E-05,0.002171449,0.076386094,-0.006247636,0.012942530273437499
2.804,-7.01E-05,0.002170947,0.076386062,-0.006249111,0.012941793
2.808,-7.10E-05,0.002170008,0.076386266,-0.006250754,0.012941994
2.812,-7.06E-05,0.002169337,0.076388172,-0.006249849,0.012942362
2.816,-6.89E-05,0.002169974,0.076389414,-0.006251257,0.012942698
2.82,-6.84E-05,0.00217051,0.076389414,-0.006252296,0.012942597656249999
2.824,-6.94E-05,0.002169572,0.076389547,-0.006253269,0.012941658
2.828,-7.09E-05,0.002168901,0.076389781,-0.006254811,0.012939345
2.832,-6.95E-05,0.002169203,0.076390555,-0.006257124,0.012937836
2.836,-6.88E-05,0.002171148,0.076392133,-0.006258667,0.012938909
2.84,-7.08E-05,0.002171684,0.076392836,-0.006258532,0.012940385
2.844,-7.10E-05,0.002171483,0.07639243,-0.006261818,0.012940083007812499
2.848,-6.99E-05,0.002170008,0.076391125,-0.006264131,0.012938607
2.852,-6.99E-05,0.002170913,0.076392063,-0.006267216,0.012936998046874999
2.856,-6.85E-05,0.002172053,0.076392266,-0.006268289,0.012937099
2.86,-7.01E-05,0.002170645,0.076390953,-0.006268188,0.012938439453124999
2.864,-7.16E-05,0.002168432,0.076389781,-0.006268859,0.012937634765624999
2.868,-7.19E-05,0.002167393,0.076389313,-0.006268725,0.012935254882812499
2.872,-7.42E-05,0.002167594,0.07638968,-0.006267015,0.012934316
2.876,-7.47E-05,0.002169169,0.076390281,-0.006264098,0.01293217
2.88,-7.41E-05,0.002169471,0.076390188,-0.00626393,0.012930963
2.884,-7.39E-05,0.002169002,0.076390758,-0.006267618,0.012928616210937499
2.888,-7.32E-05,0.002168532,0.076391859,-0.006271642,0.012927040039062499
2.892,-7.28E-05,0.002169002,0.07639307,-0.006273921,0.012927778
2.896,-7.20E-05,0.002169438,0.076393133,-0.006274793,0.012929622070312499
2.9,-7.24E-05,0.002168532,0.076392227,-0.006276067,0.012931332
2.904,-7.35E-05,0.002167828,0.076391422,-0.006279789,0.012932305
2.908,-7.36E-05,0.002165817,0.076390688,-0.00628284,0.012931868164062499
2.912,-7.61E-05,0.002166688,0.0763925,-0.00628341,0.012931734
2.916,-7.50E-05,0.002168365,0.076392094,-0.006282371,0.012930896
2.92,-7.49E-05,0.002168264,0.076391594,-0.006284617,0.012930124999999999
2.924,-7.68E-05,0.002168097,0.076392094,-0.006288037,0.012928516
2.928,-7.92E-05,0.0021686,0.076393602,-0.00629025,0.012926873046874999
2.932,-7.78E-05,0.002170175,0.076395914,-0.006293435,0.012926906
2.936,-7.59E-05,0.00217222,0.076396992,-0.006295513,0.012927811523437499
2.94,-7.89E-05,0.002172354,0.076397391,-0.006295211,0.012930627929687499
2.944,-8.05E-05,0.002170712,0.07639682,-0.006296117,0.012930963
2.948,-8.28E-05,0.002168868,0.076395648,-0.006295346,0.012929823
2.952,-8.05E-05,0.002168801,0.076395852,-0.00629672,0.012926537109374999
2.956,-7.94E-05,0.002169337,0.076396086,-0.006297022,0.012925632
2.96,-8.19E-05,0.002167996,0.076392797,-0.0062931,0.012925096
2.964,-8.60E-05,0.002166018,0.076391258,-0.006293401,0.012923722
2.968,-8.61E-05,0.002165817,0.076391594,-0.006297357,0.012922414
2.972,-8.43E-05,0.002165917,0.076393539,-0.006300609,0.012922682
2.976,-8.49E-05,0.002166554,0.076394641,-0.006300073,0.012923855468749999
2.98,-8.56E-05,0.002165716,0.076392898,-0.006298296,0.012922179
2.984,-8.84E-05,0.002163839,0.076392266,-0.006298631,0.012920804687499999
2.988,-8.94E-05,0.002161894,0.076391461,-0.006299838,0.012919329
2.992,-8.81E-05,0.002161123,0.076390953,-0.006300375,0.012919228515624999
2.996,-8.86E-05,0.002161961,0.076391422,-0.006300476,0.012921307617187499
3,-8.94E-05,0.002161257,0.076391125,-0.00630071,0.012922749
3.004,-9.19E-05,0.002159447,0.076390617,-0.006299872,0.01292238
3.008,-9.38E-05,0.002157636,0.076390188,-0.006300643,0.012921408
3.012,-9.31E-05,0.002157267,0.076390352,-0.006299637,0.012919563
3.016,-9.27E-05,0.002158944,0.076391859,-0.006299805,0.012919563
3.02,-9.28E-05,0.002159111,0.076391086,-0.006300576,0.012920503
3.024,-9.45E-05,0.002159312,0.076390586,-0.006300174,0.012917988281249999
3.028,-9.37E-05,0.002158273,0.076390047,-0.006302923,0.012914702
3.032,-9.23E-05,0.002158742,0.076391258,-0.006306678,0.012913026
3.036,-9.39E-05,0.002159782,0.076392461,-0.006307852,0.012915473632812499
3.04,-9.35E-05,0.002160318,0.076392133,-0.006306678,0.01291554
3.044,-9.51E-05,0.002158709,0.076391961,-0.006307952,0.012915104
3.048,-9.66E-05,0.002156094,0.076391992,-0.006308857,0.0129143
3.052,-9.69E-05,0.002154954,0.076392133,-0.006305907,0.012913361
3.056,-9.74E-05,0.002155054,0.076392063,-0.006302789,0.012912992
3.06,-9.71E-05,0.002155624,0.076391328,-0.006303493,0.012912288
3.064,-9.66E-05,0.002155524,0.076391422,-0.006307382,0.012909673
3.068,-9.69E-05,0.002155021,0.076392133,-0.006311707,0.012907997
3.072,-9.64E-05,0.002155423,0.076393875,-0.006314892,0.012907997
3.076,-9.47E-05,0.002157468,0.076394977,-0.006316435,0.012909438
3.08,-9.68E-05,0.002157435,0.076395547,-0.006317876,0.012910846679687499
3.084,-9.87E-05,0.002155926,0.076395047,-0.006318581,0.012909874
3.088,-9.73E-05,0.002154484,0.076393836,-0.006320257,0.012908063476562499
3.092,-9.69E-05,0.002155759,0.076395148,-0.00632304,0.012908701
3.096,-9.80E-05,0.002156295,0.076394914,-0.006322872,0.012910009
3.1,-9.88E-05,0.002155859,0.076394039,-0.006323241,0.012910377
3.104,-9.93E-05,0.002154954,0.076393305,-0.006322,0.012907293
3.108,-0.000100985,0.002153076,0.0763925,-0.006320357,0.012905214
3.112,-0.000102226,0.002152137,0.076393742,-0.006321833,0.012905616
3.116,-0.000100818,0.002152339,0.076394445,-0.006322369,0.012906588867187499
3.12,-0.000101723,0.002151735,0.076394172,-0.006324615,0.012908767578124999
3.124,-0.00010189,0.002150394,0.076392328,-0.006327901,0.012909840820312499
3.128,-0.00010474,0.002149086,0.076392367,-0.006328706,0.012910075195312499
3.132,-0.00010417,0.002147343,0.076391523,-0.006327398,0.012910142578124999
3.136,-0.000103667,0.002146706,0.076390422,-0.006326225,0.012911015
3.14,-0.000102963,0.002147142,0.07638968,-0.006327667,0.012910075195312499
3.144,-0.000107188,0.002147209,0.076390047,-0.006330516,0.012908868
3.148,-0.000108261,0.002145968,0.076389578,-0.00633226,0.012908131
3.152,-0.000108361,0.002143856,0.076389984,-0.006333098,0.012908231
3.156,-0.000108059,0.002144057,0.076391086,-0.006332562,0.012908332031249999
3.16,-0.000107322,0.002144091,0.076390789,-0.006333399,0.012907796
3.164,-0.000107825,0.002143688,0.076390688,-0.006335747,0.012906085937499999
3.168,-0.000111178,0.002143588,0.076391258,-0.00633578,0.012905583007812499
3.172,-0.000112049,0.002142917,0.076391289,-0.006334908,0.01290461
3.176,-0.000111379,0.002141442,0.076390656,-0.006333232,0.012905482
3.18,-0.000111312,0.002140637,0.076389445,-0.006332494,0.012905985
3.184,-0.00011282,0.002140135,0.076390188,-0.006333433,0.0129028
3.188,-0.000112787,0.002140168,0.076390523,-0.006335948,0.012901057
3.192,-0.00011272,0.002141576,0.076391797,-0.006338932,0.012902062499999999
3.196,-0.000107892,0.002143018,0.076392133,-0.00634205,0.012902532
3.2,-0.000112049,0.002143152,0.076393367,-0.006342586,0.012903538
3.204,-0.000112955,0.002142347,0.076392695,-0.006343726,0.012902498046874999
3.208,-0.000112049,0.002139364,0.076392195,-0.006343257,0.012901526367187499
3.212,-0.000113893,0.002138894,0.0763935,-0.006343894,0.012902733
3.216,-0.000113726,0.002139866,0.076394547,-0.006346576,0.01290461
3.22,-0.000112586,0.002141107,0.076395047,-0.006350029,0.012905817382812499
3.224,-0.000113189,0.002141006,0.076393938,-0.006350164,0.012904074218749999
3.228,-0.00011396,0.002141006,0.076393234,-0.006348822,0.012901257812499999
3.232,-0.000113022,0.002141509,0.076393773,-0.006348185,0.012898944335937499
3.236,-0.000112854,0.002142515,0.076395312,-0.00634842,0.012898877
3.24,-0.000111882,0.002143756,0.076395281,-0.00634909,0.012898508789062499
3.244,-0.00011168,0.002143052,0.076394305,-0.006349426,0.012896396
3.248,-0.000113625,0.002141073,0.076394008,-0.006349996,0.012894853515624999
3.252,-0.00011272,0.002141308,0.076395312,-0.006351437,0.012894385
3.256,-0.000110507,0.002143387,0.076394977,-0.006351303,0.012895524
3.26,-0.000112653,0.002143789,0.076395719,-0.00635251,0.012896765
3.264,-0.000112686,0.002140101,0.076393367,-0.006355192,0.012896865234374999
3.268,-0.000115737,0.002137989,0.076394273,-0.006357439,0.012898341
3.272,-0.000117816,0.002138525,0.076395719,-0.006359618,0.012899146
3.276,-0.000117749,0.002139699,0.076397898,-0.006362367,0.012899011718749999
3.28,-0.000118051,0.002138927,0.076397391,-0.006363071,0.01289948
3.284,-0.000117581,0.002137352,0.076395484,-0.006364446,0.012899011718749999
3.288,-0.000120398,0.00213591,0.076395414,-0.006363742,0.012898106
3.292,-0.000121672,0.002135374,0.076396687,-0.006363139,0.012897101
3.296,-0.000119325,0.002136882,0.076397961,-0.006365352,0.012897201171874999
3.3,-0.000119492,0.002137017,0.076398,-0.006368134,0.012897536
3.304,-0.00012023,0.002134938,0.07639632,-0.006368335,0.012897234
3.308,-0.000123449,0.002133731,0.076395617,-0.006366726,0.012896631
3.312,-0.000124086,0.002133999,0.076396992,-0.006368134,0.012896396
3.316,-0.000122845,0.002134904,0.076398633,-0.006372459,0.012897604
3.32,-0.000123817,0.002135307,0.076399406,-0.006374136,0.012899782
3.324,-0.000124454,0.002133831,0.076398531,-0.0063738,0.01289814
3.328,-0.000125527,0.002132155,0.076397492,-0.006374303,0.012896329
3.332,-0.000123817,0.002131887,0.076397961,-0.006377086,0.012897066
3.336,-0.000123918,0.002134066,0.076399438,-0.006377924,0.012898643
3.34,-0.000120901,0.002133898,0.076399469,-0.006379265,0.012899011718749999
3.344,-0.000119224,0.002132825,0.076398734,-0.006382149,0.012897838
3.348,-0.000122577,0.002132256,0.076399906,-0.006386172,0.012898776
3.352,-0.000122946,0.002133295,0.076402023,-0.006387647,0.012899514648437499
3.356,-0.00012194,0.002134569,0.076402828,-0.006386474,0.012899615
3.36,-0.000121605,0.002135307,0.076402586,-0.00638463,0.012898675781249999
3.364,-0.000124052,0.002133295,0.076400781,-0.006381579,0.012896463
3.368,-0.000127036,0.00213078,0.076399336,-0.006379802,0.012895323
3.372,-0.000127472,0.002128869,0.076398969,-0.00637883,0.012895323
3.376,-0.00013002,0.002129406,0.076399336,-0.006378025,0.012896329
3.38,-0.000129115,0.002131116,0.076399641,-0.006380204,0.012896731
3.384,-0.000127036,0.002131216,0.076400844,-0.006385133,0.012895391
3.388,-0.000125695,0.00213135,0.076401648,-0.006388184,0.012894149
3.392,-0.000127807,0.002131317,0.076402688,-0.006389189,0.012894350585937499
3.396,-0.00012831,0.002132993,0.076403328,-0.006388552,0.012894920898437499
3.4,-0.000123918,0.00213182,0.076401922,-0.006389324,0.012893412109374999
3.404,-0.000126366,0.002129305,0.076401352,-0.006389156,0.012892272
3.408,-0.000129953,0.002127092,0.076400742,-0.006388418,0.012892977
3.412,-0.000128545,0.002127729,0.076402688,-0.00639328,0.012894417968749999
3.416,-0.000128444,0.002129137,0.076403828,-0.006393984,0.012896966
3.42,-0.000129383,0.002128266,0.076402586,-0.006392576,0.012898978
3.424,-0.000129819,0.002125215,0.076399742,-0.006393682,0.01289985
3.428,-0.000131126,0.002121661,0.076396891,-0.006393146,0.012900956
3.432,-0.000133775,0.00211871,0.076395148,-0.006388753,0.012903135742187499
3.436,-0.000135083,0.002118073,0.076395312,-0.006386105,0.012906555
3.44,-0.000135921,0.002117,0.076394477,-0.00638758,0.012910645507812499
3.444,-0.000137363,0.002115123,0.076392695,-0.006390899,0.012912589843749999
3.448,-0.000140648,0.002114017,0.076392531,-0.006391838,0.012914267
3.452,-0.000141118,0.002113447,0.076392563,-0.006392844,0.012917317
3.456,-0.000141554,0.002114385,0.076392836,-0.006392442,0.012920101
3.46,-0.000140414,0.002113044,0.07639193,-0.006393045,0.012921743164062499
3.464,-0.000140447,0.002110731,0.076391523,-0.00639442,0.012920603515624999
3.468,-0.00013981,0.002108317,0.076390117,-0.006396163,0.01292114
3.472,-0.000141956,0.002106104,0.076389516,-0.00639566,0.012923855468749999
3.476,-0.000142224,0.002106003,0.076388742,-0.006394118,0.012924492187499999
3.48,-0.000140246,0.002106741,0.07638807,-0.006395225,0.012924225
3.484,-0.00014152,0.0021054,0.076387672,-0.006397303,0.012923352539062499
3.488,-0.000144973,0.002104327,0.076389445,-0.006400958,0.012924056640624999
3.492,-0.000143632,0.002104562,0.076390586,-0.006402667,0.012923118164062499
3.496,-0.000142224,0.0021054,0.076391023,-0.006402031,0.012921039062499999
3.5,-0.000141151,0.002106138,0.076391156,-0.006401394,0.012918894
3.504,-0.000140045,0.002104796,0.076391258,-0.006402735,0.012919262
3.508,-0.000139274,0.002103355,0.076390922,-0.006405115,0.012918658203124999
3.512,-0.000138536,0.002103992,0.076392633,-0.006407395,0.012918625
3.516,-0.000138704,0.002104998,0.076392938,-0.006404512,0.012918692
3.52,-0.000136256,0.002104394,0.076391156,-0.006402265,0.012917016
3.524,-0.000134412,0.002103724,0.076391797,-0.006405283,0.012915439
3.528,-0.000134245,0.002103455,0.076393133,-0.006409306,0.012913831
3.532,-0.000133775,0.002104227,0.076394977,-0.006412324,0.012913932
3.536,-0.000131428,0.002105266,0.076395648,-0.006413195,0.012914634765624999
3.54,-0.000131294,0.002104964,0.076395148,-0.006413732,0.012915373
3.544,-0.000133608,0.002104562,0.076395984,-0.006413698,0.012915876
3.548,-0.000133641,0.002104327,0.076396484,-0.006415308,0.012914903320312499
3.552,-0.000132568,0.002103489,0.076396891,-0.006417319,0.012915373
3.556,-0.000131898,0.002103556,0.076396055,-0.006418593,0.012915607
3.56,-0.000131529,0.002103489,0.076395484,-0.006419901,0.012915675
3.564,-0.000131764,0.002102047,0.076394711,-0.006420437,0.012913696
3.568,-0.000131965,0.002100773,0.076394039,-0.006421644,0.012911282
3.572,-0.000132166,0.002102215,0.076395312,-0.006424963,0.012909908203124999
3.576,-0.00012878,0.002103656,0.076396961,-0.006427679,0.012909069335937499
3.58,-0.000130154,0.002103321,0.076397156,-0.006427813,0.01290974
3.584,-0.000132903,0.002101477,0.076396891,-0.006425433,0.012909506
3.588,-0.00013411,0.002099633,0.076396758,-0.006424796,0.012908299
3.592,-0.000133708,0.002099533,0.076397195,-0.00642607,0.012906287
3.596,-0.000132266,0.002099801,0.076398063,-0.006426774,0.012905817382812499
3.6,-0.000132568,0.002099365,0.07639843,-0.006428719,0.012907661
3.604,-0.0001323,0.002098996,0.076398328,-0.006430831,0.012907729
3.608,-0.000131998,0.00209799,0.076398266,-0.006430361,0.012907258789062499
3.612,-0.000131093,0.002097085,0.076398,-0.006432038,0.012907560546874999
3.616,-0.000132669,0.002097521,0.076399305,-0.006433681,0.012910746
3.62,-0.000133071,0.002097689,0.076400578,-0.006435458,0.012911618
3.624,-0.000136524,0.002096515,0.076399977,-0.006435256,0.012913261
3.628,-0.000139073,0.002094403,0.076397625,-0.006434083,0.012912589843749999
3.632,-0.000139374,0.002092995,0.076397289,-0.006433546,0.012911685
3.636,-0.000138,0.002093062,0.076397125,-0.00643291,0.012912188
3.64,-0.000137597,0.002093229,0.076396055,-0.006431803,0.012911618
3.644,-0.000134747,0.002091419,0.076394039,-0.006433345,0.012909270507812499
3.648,-0.000135854,0.002090815,0.076394945,-0.006438676,0.012908969
3.652,-0.000136692,0.00209048,0.076395883,-0.006439112,0.012907997
3.656,-0.000134412,0.002090748,0.076396453,-0.006437436,0.012905918
3.66,-0.000133641,0.002091654,0.076396992,-0.006439012,0.012905583007812499
3.664,-0.000133507,0.002091452,0.076397094,-0.006441828,0.012904074218749999
3.668,-0.00013515,0.002090145,0.07639743,-0.006441459,0.012901895
3.672,-0.000137765,0.002089206,0.076398328,-0.006440889,0.012903236
3.676,-0.000136591,0.002089608,0.076398328,-0.0064427,0.012905549
3.68,-0.000135183,0.002089474,0.0763985,-0.006444946,0.012906555
3.684,-0.000138,0.002088435,0.076397727,-0.006444879,0.012905649
3.688,-0.00013867,0.002086524,0.076395883,-0.006446086,0.012905348
3.692,-0.000136323,0.002085619,0.076396219,-0.006449808,0.012904074218749999
3.696,-0.000134077,0.002085384,0.076396891,-0.006449539,0.012904543
3.7,-0.000135686,0.002085015,0.076396391,-0.006448198,0.012906488
3.704,-0.00013686,0.002084177,0.076394547,-0.006449707,0.012906421
3.708,-0.000137497,0.002083003,0.076394609,-0.006451518,0.012904912
3.712,-0.000138167,0.002083305,0.076396992,-0.006452657,0.012905012695312499
3.716,-0.000136189,0.002083641,0.07639743,-0.006454233,0.012906555
3.72,-0.000134848,0.002083272,0.076396625,-0.006455507,0.012907125
3.724,-0.000136223,0.002082836,0.076396625,-0.006458391,0.012907427
3.728,-0.000137329,0.002082937,0.076395586,-0.006461073,0.012907258789062499
3.732,-0.000136625,0.002082098,0.076395484,-0.006462682,0.012907091796874999
3.736,-0.000134848,0.002082165,0.076396992,-0.006466336,0.012907594726562499
3.74,-0.000136323,0.002083775,0.076399172,-0.006467275,0.012909405273437499
3.744,-0.000138436,0.002083406,0.076398734,-0.006465934,0.012909003
3.748,-0.000138536,0.002081159,0.076398094,-0.006466605,0.012907158
3.752,-0.000138704,0.002079718,0.076398703,-0.006466068,0.012907091796874999
3.756,-0.00014028,0.002079617,0.07639957,-0.006463587,0.012907594726562499
3.76,-0.000140548,0.002080958,0.076399609,-0.006464157,0.012907729
3.764,-0.000142056,0.002080858,0.076399305,-0.006466169,0.012908834960937499
3.768,-0.000142761,0.002079349,0.076399133,-0.006467611,0.012908936
3.772,-0.000143331,0.002079249,0.076400445,-0.006469958,0.012908868
3.776,-0.000138503,0.002080455,0.076400344,-0.006469488,0.012908097656249999
3.78,-0.000138201,0.002080187,0.076400109,-0.00646751,0.012906991
3.784,-0.000141487,0.002078544,0.076399508,-0.006465264,0.012905583007812499
3.788,-0.00014437,0.002077304,0.07639907,-0.006465532,0.012905146
3.792,-0.000143766,0.002078377,0.076400344,-0.006470024,0.012904275
3.796,-0.000141755,0.002080221,0.076401383,-0.006472372,0.012904644
3.8,-0.000140179,0.002079852,0.076399672,-0.00647046,0.012904577148437499
3.804,-0.000139073,0.002077773,0.076398328,-0.006471064,0.012902699218749999
3.808,-0.000142626,0.002076231,0.076398297,-0.006471332,0.01290166
3.812,-0.000145577,0.002075996,0.076399336,-0.006470796,0.012902565429687499
3.816,-0.000143901,0.002077337,0.076399742,-0.006470863,0.012903303
3.82,-0.000142995,0.002076902,0.076398133,-0.006470092,0.012902633
3.824,-0.000144672,0.002076734,0.076398398,-0.006472673,0.012901627
3.828,-0.000142291,0.002075761,0.076397289,-0.006476093,0.012899548
3.832,-0.000143901,0.002075627,0.076398234,-0.006476093,0.012898944335937499
3.836,-0.000144739,0.002076801,0.076399742,-0.006475188,0.012899883
3.84,-0.000143129,0.002077773,0.076399,-0.006476328,0.01289938
3.844,-0.000144202,0.002076734,0.076398367,-0.006477166,0.012899011718749999
3.848,-0.000145476,0.002075896,0.076399172,-0.006479681,0.012897536
3.852,-0.000142895,0.00207556,0.076399539,-0.006481357,0.012895994140624999
3.856,-0.000141285,0.002076499,0.076400508,-0.006483369,0.012896497070312499
3.86,-0.000140782,0.002077404,0.076401117,-0.006485481,0.012896966
3.864,-0.000140078,0.002076063,0.076399305,-0.006486084,0.012896128
3.868,-0.000140212,0.002074789,0.076399805,-0.006489068,0.01289482
3.872,-0.000139274,0.002074923,0.076401016,-0.006490309,0.012895122070312499
3.876,-0.000138704,0.002075125,0.076400609,-0.006489303,0.012897704
3.88,-0.000139508,0.002074588,0.076399805,-0.006489604,0.012897871093749999
3.884,-0.000141453,0.00207318,0.076398531,-0.006488297,0.012895926757812499
3.888,-0.000140212,0.002073314,0.076399172,-0.006489974,0.012893982
3.892,-0.00013686,0.002071872,0.076399133,-0.006490711,0.012892205
3.896,-0.00013629,0.002072677,0.076399742,-0.006491415,0.012892977
3.9,-0.000137564,0.002072644,0.076399742,-0.006491516,0.012893814
3.904,-0.000138637,0.002070665,0.076398398,-0.006492187,0.012892038
3.908,-0.00013981,0.002069123,0.076397961,-0.006492622,0.012891233
3.912,-0.00014028,0.002068821,0.076398133,-0.006493159,0.012892306
3.916,-0.000139441,0.002070028,0.076398633,-0.006495002,0.012893312
3.92,-0.000140212,0.002070732,0.07639793,-0.006496411,0.012893110351562499
3.924,-0.000142258,0.002069727,0.076397156,-0.006498054,0.012893847656249999
3.928,-0.000142459,0.002068587,0.076396289,-0.006498154,0.012893312
3.932,-0.000143263,0.002068754,0.076396992,-0.006497484,0.012892071
3.936,-0.000142727,0.00206909,0.076398063,-0.006498557,0.012892674804687499
3.94,-0.000142023,0.002069257,0.076399133,-0.006500903,0.012892943359374999
3.944,-0.000139609,0.002068922,0.076398805,-0.006504826,0.012892373046874999
3.948,-0.000140984,0.002068017,0.076397594,-0.006505665,0.012891334
3.952,-0.000143632,0.002067178,0.076397563,-0.006505329,0.012891971
3.956,-0.000143364,0.002066441,0.076397898,-0.006504558,0.012893445
3.96,-0.000142794,0.002066407,0.076398164,-0.006506167,0.012892474
3.964,-0.000143901,0.002066005,0.07639843,-0.006507944,0.012890965
3.968,-0.00014323,0.002064396,0.076397625,-0.006508984,0.01288969
3.972,-0.000143565,0.002065234,0.076399133,-0.00651066,0.012889489
3.976,-0.000141386,0.002067346,0.076400914,-0.006512135,0.012889725
3.98,-0.00014028,0.002067883,0.076400813,-0.006511029,0.012888919921874999
3.984,-0.000142392,0.002065905,0.076399508,-0.00650895,0.012887444
3.988,-0.000145376,0.002063859,0.076398898,-0.006508783,0.012886471679687499
3.992,-0.000144873,0.002062552,0.076399336,-0.006509922,0.012886539062499999
3.996,-0.000145074,0.002062753,0.076400078,-0.006508011,0.01288674
4,-0.000143699,0.002062652,0.076399469,-0.006508548,0.01288788
4.004,-0.000144806,0.002061244,0.076399305,-0.006510928,0.012888182
4.008,-0.000146583,0.002060741,0.076400211,-0.006511733,0.012886069
4.012,-0.000146046,0.002060406,0.076399938,-0.006511498,0.012885968749999999
4.016,-0.000144806,0.002061546,0.076399609,-0.006512102,0.012885600585937499
4.02,-0.00014789,0.002061579,0.076400547,-0.006511968,0.012886103515624999
4.024,-0.000148661,0.002059836,0.076399438,-0.006510928,0.012885600585937499
4.028,-0.000147354,0.00205826,0.076397391,-0.006511632,0.012884962890624999
4.032,-0.00014732,0.002057522,0.076397727,-0.00651361,0.012884795898437499
4.036,-0.000152618,0.002059132,0.076400078,-0.006515187,0.012886539062499999
4.04,-0.000156876,0.002060641,0.076402352,-0.006515991,0.012888483
4.044,-0.000158552,0.002060238,0.076402727,-0.006514985,0.012888618164062499
4.048,-0.000156943,0.002058093,0.076402219,-0.006515253,0.012887813
4.052,-0.000156373,0.002056047,0.076402258,-0.006516628,0.012889255
4.056,-0.00015768,0.002057456,0.076404,-0.006516963,0.012891736
4.06,-0.000157144,0.002058193,0.076403898,-0.006517433,0.012891065
4.064,-0.000159156,0.002057187,0.076402922,-0.006518841,0.012890328
4.068,-0.000161469,0.002057288,0.076403898,-0.006521221,0.012890395
4.072,-0.000162106,0.002057925,0.076405141,-0.006523669,0.012892205
4.076,-0.00016053,0.002057187,0.076404602,-0.00652206,0.01289301
4.08,-0.000160564,0.002056483,0.076403297,-0.006519914,0.012893344726562499
4.084,-0.000160631,0.002054941,0.076402625,-0.006521523,0.012892909
4.088,-0.000160497,0.002053231,0.076402688,-0.006522026,0.012891233
4.092,-0.000159223,0.002052158,0.076403094,-0.006522193,0.012889657
4.096,-0.000157915,0.002051923,0.076403258,-0.006523267,0.012889892
4.1,-0.000156373,0.002053298,0.076403828,-0.006524876,0.012888986
4.104,-0.000158351,0.00205484,0.076404867,-0.006525681,0.012888081
4.108,-0.000160463,0.002055947,0.076405508,-0.006525144,0.012886572
4.112,-0.000159726,0.002057221,0.076406281,-0.006526585,0.012886103515624999
4.116,-0.000159055,0.002057321,0.076408055,-0.006528866,0.01288845
4.12,-0.000159726,0.00205712,0.076409063,-0.006530676,0.012888685
4.124,-0.00016043,0.002057087,0.076409328,-0.006532922,0.012887143
4.128,-0.000159625,0.002055712,0.076408859,-0.006533761,0.012884795898437499
4.132,-0.000159793,0.002054706,0.076408789,-0.006533425,0.012884125
4.136,-0.000160497,0.002056383,0.076410438,-0.006534833,0.012885465820312499
4.14,-0.000161435,0.002057154,0.076410305,-0.006532788,0.012884762
4.144,-0.000163648,0.002055578,0.076410164,-0.006532654,0.01288275
4.148,-0.000163749,0.002054606,0.076411141,-0.006536778,0.012882549
4.152,-0.0001611,0.002054773,0.076410633,-0.006539393,0.012882616
4.156,-0.000162642,0.002056114,0.076412477,-0.006541975,0.012885533203124999
4.16,-0.000163011,0.002057321,0.076413688,-0.00654345,0.012887444
4.164,-0.000164386,0.002058998,0.076414055,-0.006544892,0.012885097656249999
4.168,-0.000164989,0.002059534,0.076414992,-0.006544389,0.012882348632812499
4.172,-0.000165191,0.002058227,0.076416406,-0.006543282,0.012882181
4.176,-0.000167504,0.002058227,0.076418852,-0.006542511,0.012883856
4.18,-0.000167269,0.002058696,0.07641932,-0.006541137,0.012884158
4.184,-0.000170119,0.002057858,0.076419523,-0.006541137,0.012883856
4.188,-0.000170723,0.002056885,0.076418313,-0.006543115,0.012883856
4.192,-0.00017374,0.002056383,0.076418914,-0.006542008,0.012883924
4.196,-0.000171024,0.002056684,0.076418719,-0.006541372,0.012884192
4.2,-0.000167605,0.002056416,0.076417375,-0.00654335,0.012885198
4.204,-0.000166599,0.002055075,0.076416266,-0.006547574,0.012885600585937499
4.208,-0.000165928,0.002053499,0.076415797,-0.006550458,0.012885131
4.212,-0.000164956,0.002053332,0.076415766,-0.006551698,0.012884225585937499
4.216,-0.000161905,0.002054337,0.076417578,-0.006554447,0.012883856
4.22,-0.000162642,0.002055008,0.076417141,-0.006555151,0.012884762
4.224,-0.000164017,0.002052561,0.076415836,-0.006555855,0.012885433
4.228,-0.000164956,0.002049576,0.076415164,-0.006556291,0.012885063
4.232,-0.000166632,0.002048805,0.076416102,-0.006556593,0.012884192
4.236,-0.000166532,0.002049677,0.076417914,-0.006558638,0.012884628
4.24,-0.00016623,0.002050448,0.076417742,-0.006559711,0.012886371
4.244,-0.000166934,0.00204961,0.076416602,-0.006560717,0.01288664
4.248,-0.00016918,0.002047297,0.076415695,-0.006561723,0.012886137
4.252,-0.000169985,0.002046727,0.076416438,-0.006562594,0.012886606445312499
4.256,-0.000167269,0.002047766,0.076416266,-0.006562795,0.012887176
4.26,-0.000166498,0.002046794,0.076414125,-0.006559979,0.012887311
4.264,-0.000167001,0.002044447,0.076410805,-0.006557565,0.012886304687499999
4.268,-0.00016975,0.002042703,0.076411406,-0.006559946,0.012885399
4.272,-0.000168812,0.002043441,0.076414359,-0.006562159,0.012883421
4.276,-0.000166062,0.002046157,0.076417305,-0.006563936,0.012884091796874999
4.28,-0.000166431,0.002047632,0.076419055,-0.006563936,0.012886003
4.284,-0.000164755,0.002045989,0.07641868,-0.006565578,0.012887109374999999
4.288,-0.000165023,0.002044614,0.076418852,-0.006568461,0.012887176
4.292,-0.000167202,0.002043139,0.076419758,-0.00656769,0.012887411
4.296,-0.000168845,0.002042737,0.07641925,-0.00656474,0.01288788
4.3,-0.000168879,0.002041832,0.076417875,-0.006561823,0.012887444
4.304,-0.000168007,0.002038781,0.076416133,-0.006561588,0.012886908
4.308,-0.000166934,0.002037875,0.076415633,-0.006564036,0.012884962890624999
4.312,-0.000165492,0.002038512,0.076416937,-0.006566718,0.012884628
4.316,-0.000164118,0.002039854,0.076417742,-0.006568126,0.012887143
4.32,-0.000164855,0.002040558,0.076417742,-0.006567322,0.012887779296874999
4.324,-0.000165056,0.002039317,0.076416406,-0.006566417,0.012885097656249999
4.328,-0.000165526,0.002037842,0.076415398,-0.006567154,0.012882113
4.332,-0.000167202,0.002036735,0.076417172,-0.006567288,0.012881812
4.336,-0.000165224,0.0020364,0.07641818,-0.006567959,0.012882583
4.34,-0.000163313,0.002037205,0.076418547,-0.006569635,0.012882213867187499
4.344,-0.000163715,0.002036735,0.076418781,-0.006570875,0.012879331
4.348,-0.000164051,0.00203526,0.076420023,-0.006571781,0.012876246
4.352,-0.000161402,0.002034724,0.076421031,-0.006573122,0.012873698242187499
4.356,-0.000162274,0.002036702,0.076423547,-0.006574295,0.012874
4.36,-0.000162173,0.002037305,0.076422508,-0.006573524,0.012874905273437499
4.364,-0.000163078,0.002035495,0.076419117,-0.006572854,0.012876179
4.368,-0.000167035,0.002032712,0.076418852,-0.006577112,0.012879397460937499
4.372,-0.000167873,0.002029359,0.076418148,-0.006579593,0.012883287109374999
4.376,-0.000169549,0.002027716,0.076416977,-0.006577246,0.012886539062499999
4.38,-0.000170454,0.002026711,0.076416336,-0.006577011,0.012888518
4.384,-0.000170857,0.002024095,0.076414055,-0.006577816,0.012889992
4.388,-0.000173472,0.002021313,0.076412242,-0.006580464,0.012890965
4.392,-0.000174914,0.002020776,0.07641275,-0.006584454,0.012892440429687499
4.396,-0.000172868,0.002021246,0.076413016,-0.006586332,0.012893278
4.4,-0.000170052,0.002020575,0.076411914,-0.006588411,0.012894016
4.404,-0.000170354,0.00201863,0.076410031,-0.006588075,0.012893344726562499
4.408,-0.000171561,0.002016149,0.076408359,-0.006585695,0.012892171874999999
4.412,-0.000171896,0.002014775,0.076407352,-0.00658318,0.012891166015624999
4.416,-0.000171125,0.002015244,0.076407953,-0.006584488,0.012891636
4.42,-0.000170622,0.002016786,0.076408789,-0.006585862,0.012893144
4.424,-0.00017307,0.002016786,0.076408695,-0.006586466,0.012894083
4.428,-0.00017431,0.002016284,0.076408422,-0.006588276,0.012892875976562499
4.432,-0.00017364,0.002015579,0.076409594,-0.006590221,0.012892474
4.436,-0.000171125,0.002015982,0.076410734,-0.006591395,0.012893445
4.44,-0.000168711,0.002017155,0.076411977,-0.006594747,0.012893177734374999
4.444,-0.000170086,0.002016719,0.076411508,-0.006594781,0.012892742187499999
4.448,-0.000172064,0.002015814,0.076411539,-0.006595954,0.012892239257812499
4.452,-0.000173673,0.002016317,0.076413758,-0.006597731,0.012893244
4.456,-0.000170656,0.002016954,0.076415031,-0.00659629,0.012893982
4.46,-0.00017079,0.002015144,0.076413555,-0.00659173,0.012894652
4.464,-0.000175316,0.00201444,0.076412953,-0.006589953,0.01289425
4.468,-0.000178501,0.002014171,0.076414023,-0.006592535,0.012894183593749999
4.472,-0.000179138,0.002016116,0.076416438,-0.006596189,0.012894350585937499
4.476,-0.000177562,0.002017759,0.076417109,-0.006598033,0.012895592
4.48,-0.000179205,0.002017926,0.07641825,-0.006600313,0.012898308
4.484,-0.000180613,0.00201625,0.0764165,-0.006600447,0.012899548
4.488,-0.000179943,0.002013568,0.07641543,-0.006598033,0.012898441406249999
4.492,-0.000181887,0.002011556,0.076415133,-0.006595887,0.012899615
4.496,-0.00018125,0.002011657,0.076415328,-0.006596692,0.012900554
4.5,-0.000179976,0.002011187,0.076414758,-0.006597128,0.012900453
4.504,-0.000179909,0.002009746,0.076413383,-0.006597563,0.012898005859374999
4.508,-0.000181418,0.002009243,0.076414086,-0.006598972,0.012895323
4.512,-0.000181083,0.002009846,0.076415766,-0.006599709,0.012894552
4.516,-0.000176422,0.002009511,0.076416,-0.00660105,0.012895759
4.52,-0.000178166,0.00200988,0.076415898,-0.006602626,0.012897938476562499
4.524,-0.000178736,0.002009243,0.076415062,-0.006606817,0.012900386
4.528,-0.000181217,0.002007332,0.076414727,-0.006608024,0.012900486328124999
4.532,-0.00018125,0.002006158,0.07641493,-0.006608795,0.012899514648437499
4.536,-0.000179138,0.002005856,0.076414727,-0.006608158,0.012900219
4.54,-0.000179507,0.002006292,0.076414992,-0.006606951,0.012901492187499999
4.544,-0.000179339,0.002005454,0.076415328,-0.006608158,0.012900554
4.548,-0.000179239,0.00200465,0.076416172,-0.00661017,0.012899447265624999
4.552,-0.000180077,0.00200475,0.0764165,-0.006608997,0.012899716
4.556,-0.000181351,0.002004884,0.076417344,-0.006608326,0.012901190429687499
4.56,-0.000182692,0.002004717,0.076417578,-0.006607756,0.012902766601562499
4.564,-0.000183363,0.002003107,0.076414656,-0.006608494,0.012902096
4.568,-0.000188358,0.002003342,0.076416906,-0.006611779,0.012901995117187499
4.572,-0.000191174,0.002004884,0.07641982,-0.006614361,0.012903102
4.576,-0.000191744,0.00200532,0.076421297,-0.006614495,0.012902633
4.58,-0.000192046,0.002007231,0.076423211,-0.006615132,0.012901526367187499
4.584,-0.000192247,0.002007432,0.076423312,-0.006615333,0.012900788
4.588,-0.000192147,0.002005488,0.076422133,-0.006613187,0.012897502929687499
4.592,-0.00019208,0.002003074,0.076422133,-0.006612417,0.01289529
4.596,-0.000191644,0.002001498,0.076421266,-0.006611444,0.012894686523437499
4.6,-0.000189599,0.002000458,0.076419891,-0.006611243,0.01289425
4.604,-0.000190873,0.001999218,0.076419086,-0.006612852,0.012894350585937499
4.608,-0.000192918,0.001998782,0.076419625,-0.006616942,0.012893714
4.612,-0.00019218,0.001998547,0.07642093,-0.006619323,0.012892742187499999
4.616,-0.000197411,0.001999755,0.076423914,-0.006618519,0.01289425
4.62,-0.00020016,0.002001565,0.076426227,-0.006618049,0.012894485
4.624,-0.00020073,0.00200304,0.076426531,-0.006621972,0.012895256
4.628,-0.00020026,0.002002537,0.076425656,-0.006626464,0.01289482
4.632,-0.000195868,0.002001397,0.076426492,-0.006627269,0.012891837
4.636,-0.000192415,0.002001129,0.076426531,-0.006625056,0.012890495
4.64,-0.000194326,0.002001062,0.076426297,-0.006624788,0.012890864257812499
4.644,-0.000193521,0.001999117,0.076423711,-0.006626967,0.012889053710937499
4.648,-0.000191376,0.001997005,0.076422367,-0.006630856,0.012887914
4.652,-0.000192281,0.001996234,0.076423273,-0.006632701,0.012888182
4.656,-0.000193253,0.001996335,0.076424453,-0.006633539,0.012890998
4.66,-0.000192817,0.001996838,0.076423977,-0.006635316,0.012892071
4.664,-0.000193153,0.001997039,0.076423039,-0.006637361,0.012890563
4.668,-0.000194762,0.001995429,0.076422,-0.006637596,0.012889858398437499
4.672,-0.000195365,0.001994826,0.076422367,-0.006639339,0.012890965
4.676,-0.000194762,0.001994759,0.076422742,-0.006640982,0.012892004
4.68,-0.000195097,0.001995262,0.076422703,-0.006643127,0.012893344726562499
4.684,-0.000197243,0.001994021,0.076422773,-0.006647151,0.012896262
4.688,-0.000197209,0.001993485,0.076422641,-0.006648056,0.012896095
4.692,-0.000200965,0.001993049,0.076423312,-0.006647218,0.012897033
4.696,-0.000202104,0.001994524,0.076424117,-0.006646313,0.012898341
4.7,-0.000200797,0.001995698,0.076423883,-0.006644771,0.012897669921874999
4.704,-0.000200059,0.001995832,0.076423648,-0.006644536,0.012895558
4.708,-0.000200529,0.001994826,0.076423312,-0.006646145,0.01289472
4.712,-0.000200193,0.001994491,0.076423977,-0.006648392,0.012895021
4.716,-0.000197846,0.001994859,0.076424719,-0.0066499,0.012895859374999999
4.72,-0.000195801,0.001995899,0.076423312,-0.006651912,0.012896563
4.724,-0.000197209,0.001994994,0.076421531,-0.006653588,0.012895793
4.728,-0.000199154,0.001993686,0.076422102,-0.006655432,0.012894519
4.732,-0.000199456,0.001994424,0.076425187,-0.006657411,0.012892642
4.736,-0.000198014,0.001996133,0.076427195,-0.006656103,0.012892306
4.74,-0.000194427,0.001995832,0.076424953,-0.00665513,0.012891802734374999
4.744,-0.000196002,0.001994289,0.076423742,-0.006654862,0.01289073
4.748,-0.000197981,0.001992747,0.076424281,-0.006657109,0.012890328
4.752,-0.000195734,0.001991943,0.076425625,-0.006660964,0.012889523
4.756,-0.000193689,0.001992412,0.076426766,-0.006665256,0.012891233
4.76,-0.0001956,0.001991741,0.076426531,-0.006666832,0.012893445
4.764,-0.000194427,0.001989931,0.076424617,-0.006667133,0.012892674804687499
4.768,-0.000197209,0.001989126,0.076425727,-0.006668207,0.012891468
4.772,-0.00020073,0.001988824,0.076426898,-0.00666881,0.012892507
4.776,-0.000200026,0.001989797,0.076427906,-0.006668508,0.012893312
4.78,-0.000197176,0.001990266,0.076427398,-0.00666767,0.012892104492187499
4.784,-0.000197712,0.001989629,0.076426391,-0.006668743,0.012890529
4.788,-0.000199523,0.001988925,0.07642643,-0.006670285,0.012888383
4.792,-0.000200227,0.001988925,0.076428141,-0.006672297,0.012888216
4.796,-0.000199489,0.001988959,0.076429414,-0.006672464,0.012889188
4.8,-0.000199188,0.00198926,0.07642918,-0.006670453,0.012889222
4.804,-0.000202239,0.00198916,0.076428242,-0.006670084,0.012889121093749999
4.808,-0.000204552,0.001988288,0.076427633,-0.006670788,0.012888852539062499
4.812,-0.00020415,0.00198755,0.076427398,-0.006671626,0.012887813
4.816,-0.000200462,0.001988255,0.076427398,-0.006671861,0.012886808
4.82,-0.000200897,0.001989093,0.076428945,-0.006673738,0.012886974609374999
4.824,-0.000200294,0.001989361,0.076429313,-0.006678566,0.012885264648437499
4.828,-0.000201065,0.001988389,0.076429375,-0.006680478,0.012884225585937499
4.832,-0.000201937,0.001988322,0.076429813,-0.006679673,0.012882013
4.836,-0.000198886,0.001988657,0.07643025,-0.00667917,0.012880571
4.84,-0.000199255,0.001987416,0.076429211,-0.006676957,0.012880705078124999
4.844,-0.000202138,0.001986209,0.076427234,-0.006676722,0.012880403320312499
4.848,-0.00020643,0.001985874,0.07642757,-0.006676991,0.012880303
4.852,-0.000207268,0.001984801,0.076428336,-0.006676152,0.012880001
4.856,-0.000206798,0.001985304,0.076429477,-0.006676253,0.012880068
4.86,-0.000207167,0.001984768,0.076427766,-0.006673973,0.012879264
4.864,-0.000210017,0.001984131,0.076426125,-0.006672263,0.012877319
4.868,-0.000211693,0.001982957,0.076426797,-0.006672599,0.012874737
4.872,-0.000212867,0.001981583,0.076428438,-0.006673303,0.012874503
4.876,-0.000211693,0.001981515,0.076430219,-0.006676588,0.012875743
4.88,-0.000208609,0.001982186,0.076431594,-0.00668098,0.012876882812499999
4.884,-0.000208307,0.001982555,0.07643075,-0.006682791,0.012876917
4.888,-0.000208642,0.001979101,0.07642918,-0.006683193,0.012876379882812499
4.892,-0.000210453,0.001977995,0.076430516,-0.006685104,0.012875408203124999
4.896,-0.000210956,0.001979571,0.076431422,-0.00668621,0.012876983
4.9,-0.000209346,0.001979906,0.076430789,-0.006686613,0.012877486
4.904,-0.000210285,0.001980409,0.076431086,-0.006688792,0.012876983
4.908,-0.000212766,0.001980342,0.076431656,-0.006690837,0.012878492
4.912,-0.000211962,0.001979236,0.076430516,-0.006690804,0.012877923
4.916,-0.000208978,0.001978733,0.076431023,-0.006693486,0.012877554
4.92,-0.000206664,0.001978364,0.076431188,-0.006696336,0.01287856
4.924,-0.000206463,0.001977928,0.076430016,-0.006697476,0.012876515
4.928,-0.000209313,0.001975413,0.076429711,-0.006698213,0.012875709960937499
4.932,-0.000213571,0.001973871,0.076430922,-0.006698448,0.012876917
4.936,-0.000214275,0.001974508,0.076431828,-0.006696839,0.012877688
4.94,-0.000214107,0.001975413,0.076430352,-0.006694861,0.012876447265624999
4.944,-0.000216588,0.001975581,0.076429984,-0.006695867,0.01287524
4.948,-0.000216991,0.001974475,0.076430555,-0.006698314,0.012874805
4.952,-0.000214744,0.0019731,0.076431023,-0.006699923,0.012873799
4.956,-0.000212196,0.001974173,0.07643193,-0.0067017,0.012873195312499999
4.96,-0.000212632,0.001974575,0.076432664,-0.006702706,0.012873731
4.964,-0.000213873,0.001975179,0.076432531,-0.006704584,0.012874066406249999
4.968,-0.00021394,0.001974039,0.076432227,-0.006706461,0.012874335
4.972,-0.000215817,0.001973737,0.076432695,-0.006706428,0.012873497
4.976,-0.000215314,0.001974911,0.076433602,-0.006708842,0.012874201171874999
4.98,-0.000213068,0.001975145,0.076433305,-0.006712127,0.012875072265624999
4.984,-0.000214543,0.001975112,0.076432328,-0.006714542,0.012876045
4.988,-0.000220008,0.001973536,0.076432531,-0.006714475,0.012877654296874999
4.992,-0.000224166,0.001972731,0.076434008,-0.006715246,0.012877888671874999
4.996,-0.00022383,0.001973603,0.076434945,-0.006717592,0.012877721679687499
5,-0.000222892,0.001973134,0.076434812,-0.006717995,0.012878224609374999
5.004,-0.000222892,0.001970854,0.076433133,-0.006716218,0.012876749
5.008,-0.000222657,0.00197025,0.076433469,-0.006716017,0.012873127929687499
5.012,-0.00022326,0.00197082,0.076434109,-0.006716385,0.012873095
5.016,-0.000221048,0.001969613,0.076431555,-0.006714877,0.012873127929687499
5.02,-0.000221081,0.001969345,0.076431492,-0.006715044,0.012873127929687499
5.024,-0.000222154,0.001968473,0.076431289,-0.006717928,0.012873229
5.028,-0.000222657,0.001966964,0.076431555,-0.006721247,0.012873698242187499
5.032,-0.000221718,0.001966462,0.07643243,-0.006722487,0.012871687
5.036,-0.000222757,0.001967501,0.076433203,-0.00672071,0.012871352
5.04,-0.000221685,0.001967233,0.076432258,-0.006720442,0.01287105
5.044,-0.000222355,0.001965959,0.076430984,-0.006721381,0.012869843
5.048,-0.000224669,0.001965355,0.076430953,-0.006723896,0.01287011
5.052,-0.000223864,0.001966361,0.076433164,-0.006725706,0.012869708
5.056,-0.000223462,0.00196787,0.076435008,-0.00672755,0.012870044
5.06,-0.000221416,0.001968674,0.076435617,-0.006730199,0.012871016
5.064,-0.000223193,0.001967568,0.076435648,-0.006728724,0.01286944
5.068,-0.000226714,0.001965824,0.076435008,-0.006724566,0.012866926
5.072,-0.00022772,0.001964282,0.07643575,-0.00672232,0.012864779
5.076,-0.000225775,0.00196502,0.076435477,-0.006720945,0.012864008789062499
5.08,-0.000224032,0.001964685,0.076434375,-0.006720074,0.012864310546874999
5.084,-0.000224702,0.001963712,0.076433539,-0.006720409,0.012862835
5.088,-0.000228222,0.001962673,0.076433469,-0.006719973,0.012860555664062499
5.092,-0.000232045,0.001962002,0.076434672,-0.006719403,0.012861862
5.096,-0.000230033,0.001962069,0.076434609,-0.006719604,0.012863271
5.1,-0.000229564,0.001961902,0.076434039,-0.00671833,0.012864008789062499
5.104,-0.000228524,0.001960158,0.076432164,-0.006718397,0.012862198
5.108,-0.000228725,0.001959018,0.076432094,-0.006719805,0.01285965
5.112,-0.000229262,0.00195875,0.076432664,-0.006718229,0.01285784
5.116,-0.000228021,0.001959924,0.07643407,-0.006718632,0.01285727
5.12,-0.000227652,0.001961064,0.076436148,-0.006720208,0.012857973632812499
5.124,-0.000229195,0.001958884,0.076434539,-0.006717894,0.012857101562499999
5.128,-0.000231307,0.001956772,0.076434945,-0.0067189,0.012855962
5.132,-0.000233453,0.001957476,0.076436719,-0.006721415,0.012855995
5.136,-0.000232313,0.001958884,0.076436852,-0.006721381,0.012856264
5.14,-0.000230301,0.001959152,0.076435914,-0.006721415,0.012856666015624999
5.144,-0.000230569,0.001957778,0.076434273,-0.00672242,0.012856196
5.148,-0.000231408,0.001955364,0.076433773,-0.006724533,0.012855425781249999
5.152,-0.000230704,0.001954492,0.076435578,-0.006726913,0.012852743
5.156,-0.000229664,0.00195533,0.076436852,-0.006727718,0.012852006
5.16,-0.00022953,0.001956135,0.076436523,-0.006727785,0.012852609374999999
5.164,-0.000230301,0.001955632,0.076436188,-0.006729394,0.012853146
5.168,-0.000229362,0.001954526,0.076435414,-0.00673221,0.012851368
5.172,-0.000228725,0.00195476,0.076436891,-0.006735127,0.012850195
5.176,-0.000228725,0.00195704,0.076438898,-0.006736636,0.012851402343749999
5.18,-0.000227887,0.001957979,0.076438664,-0.006735262,0.012850497
5.184,-0.00023124,0.001957308,0.076439266,-0.006733116,0.012848083007812499
5.188,-0.000235766,0.001956705,0.076440477,-0.00673087,0.01284463
5.192,-0.000233386,0.001955297,0.076440539,-0.006732009,0.012842651
5.196,-0.000230201,0.00195637,0.076441148,-0.006731808,0.012842953124999999
5.2,-0.000228625,0.001956236,0.076440539,-0.006731774,0.012843121
5.204,-0.0002301,0.001953855,0.07643957,-0.006730534,0.012842249
5.208,-0.000232212,0.001953185,0.076440273,-0.00673154,0.012840036
5.212,-0.000233654,0.001954257,0.076442523,-0.006733216,0.012839701171874999
5.216,-0.000233755,0.001955867,0.076443328,-0.006733149,0.012840707031249999
5.22,-0.000237174,0.001956034,0.076443359,-0.006730367,0.012843054
5.224,-0.000239622,0.001955364,0.076441883,-0.006728556,0.012842215820312499
5.228,-0.000241265,0.001954459,0.07644175,-0.006729461,0.012840036
5.232,-0.000242371,0.001953587,0.076442586,-0.006730367,0.012840371093749999
5.236,-0.000238884,0.001953687,0.076443094,-0.00673268,0.012840639648437499
5.24,-0.00023761,0.001953352,0.076443195,-0.00673325,0.012840438476562499
5.244,-0.000238582,0.001952548,0.076442586,-0.006734088,0.012839768554687499
5.248,-0.000237778,0.001951743,0.076442789,-0.006737675,0.012838796
5.252,-0.000236772,0.001950938,0.076443258,-0.006738849,0.012836751
5.256,-0.000236504,0.001951743,0.076443664,-0.006738246,0.012836751
5.26,-0.000236303,0.00195362,0.07644393,-0.006739419,0.012836884765624999
5.264,-0.000237878,0.001951374,0.076442992,-0.006740693,0.012837053
5.268,-0.000240091,0.001948658,0.076443594,-0.006740961,0.012835141601562499
5.272,-0.000241835,0.001946948,0.076445172,-0.006741598,0.012833867187499999
5.276,-0.000240024,0.001947954,0.076445406,-0.00674304,0.012834068359374999
5.28,-0.000238951,0.001948759,0.076444703,-0.006742503,0.012833733
5.284,-0.000238784,0.001947653,0.076442992,-0.006741799,0.012832325
5.288,-0.000239689,0.00194668,0.076442148,-0.006745219,0.012832995117187499
5.292,-0.000242103,0.001947049,0.076443594,-0.006749477,0.012835308593749999
5.296,-0.000240963,0.00194839,0.076444836,-0.006753702,0.012835644531249999
5.3,-0.000241265,0.001950033,0.076446578,-0.006754607,0.012835846
5.304,-0.00024274,0.001948725,0.076445406,-0.006755043,0.012837387695312499
5.308,-0.000244819,0.001946647,0.076444266,-0.006754506,0.012839567
5.312,-0.000249512,0.001944803,0.076445102,-0.006754439,0.012841612
5.316,-0.000249177,0.001944803,0.076445703,-0.006756887,0.012843523437499999
5.32,-0.000248071,0.001944903,0.076445273,-0.006758127,0.012844797
5.324,-0.000248574,0.001943361,0.076444328,-0.0067592,0.012846205078124999
5.328,-0.000248674,0.001941416,0.076443523,-0.006759033,0.012847312
5.332,-0.000250351,0.00194202,0.076443594,-0.006760977,0.012849223
5.336,-0.000248272,0.001941081,0.076443156,-0.006761547,0.012851837890624999
5.34,-0.000246394,0.001939774,0.076442117,-0.006765101,0.012854889
5.344,-0.000247668,0.001937963,0.076441414,-0.006769326,0.012857705
5.348,-0.000252262,0.001936823,0.076442086,-0.006772846,0.012860455
5.352,-0.000253804,0.00193679,0.076443258,-0.006776635,0.012863036
5.356,-0.000251658,0.001936857,0.076443758,-0.006778311,0.012866087
5.36,-0.00025196,0.001937259,0.076444766,-0.006782033,0.012869808593749999
5.364,-0.000251424,0.001936656,0.076444164,-0.006783039,0.012870044
5.368,-0.000252932,0.001934476,0.076443727,-0.006782703,0.012869205
5.372,-0.000254743,0.001933336,0.07644393,-0.006783273,0.012869675
5.376,-0.000253268,0.0019329,0.076443094,-0.006783441,0.01287105
5.38,-0.000251558,0.001931962,0.076441211,-0.006782938,0.012871251
5.384,-0.000251189,0.001929816,0.076437891,-0.006782334,0.012870009765624999
5.388,-0.000254005,0.001928307,0.076438195,-0.006784715,0.012869272
5.392,-0.000253703,0.001928408,0.076440039,-0.00678686,0.012868836914062499
5.396,-0.000250719,0.001928039,0.07644175,-0.006789141,0.012868870117187499
5.4,-0.000249445,0.001929145,0.076442688,-0.006792326,0.01286934
5.404,-0.000252798,0.001928207,0.076443258,-0.006793332,0.012870613
5.408,-0.000254273,0.001927067,0.07644282,-0.006793566,0.012869373046874999
5.412,-0.000255547,0.001927938,0.076442859,-0.006792125,0.012866725
5.416,-0.000256252,0.001928978,0.076444398,-0.006791353,0.012867529
5.42,-0.000255179,0.001928575,0.076444328,-0.006791856,0.012868602
5.424,-0.000254676,0.001926228,0.076442719,-0.006791487,0.012867260742187499
5.428,-0.000255849,0.001924351,0.076442422,-0.00679018,0.012864511718749999
5.432,-0.000254944,0.001924116,0.076443055,-0.00679189,0.012863438
5.436,-0.000253603,0.001924921,0.07644393,-0.006793767,0.012864511718749999
5.44,-0.000253603,0.001925625,0.076444734,-0.006795276,0.012866021
5.444,-0.000254374,0.001926027,0.076445437,-0.006796684,0.012863908
5.448,-0.000255112,0.001925357,0.076445609,-0.006796617,0.012861728515624999
5.452,-0.000256587,0.001924586,0.076446844,-0.006797254,0.012861058593749999
5.456,-0.000255749,0.00192472,0.076446211,-0.006796785,0.012861494140624999
5.46,-0.00025662,0.00192596,0.076446109,-0.006795008,0.012860891
5.464,-0.000257961,0.001925491,0.076445508,-0.006795946,0.012859214
5.468,-0.000258531,0.001924619,0.076444867,-0.006797824,0.012858142
5.472,-0.000257123,0.001922909,0.07644343,-0.006798931,0.012857705
5.476,-0.000257626,0.001922674,0.076443727,-0.006799299,0.012858912109374999
5.48,-0.000258934,0.001923948,0.076443898,-0.006798126,0.01285851
5.484,-0.000260711,0.001923513,0.076442719,-0.006795443,0.012856364257812499
5.488,-0.000263661,0.001921836,0.076441617,-0.006794605,0.012854788085937499
5.492,-0.000261247,0.001921233,0.076439938,-0.006797187,0.012853916992187499
5.496,-0.000260711,0.001921669,0.076441109,-0.00680064,0.012856598632812499
5.5,-0.000261046,0.00192197,0.076441547,-0.006801881,0.012859248046874999
5.504,-0.000263158,0.001921803,0.07644182,-0.006803122,0.012859449
5.508,-0.000264633,0.001921333,0.076440844,-0.006803524,0.012858476562499999
5.512,-0.000265203,0.001920361,0.076441617,-0.0068052,0.012858476562499999
5.516,-0.000265773,0.001922004,0.076443492,-0.006805066,0.012860119
5.52,-0.000265606,0.001922674,0.076443258,-0.006803222,0.012860689453124999
5.524,-0.000266846,0.001922574,0.076442586,-0.006805033,0.012860656
5.528,-0.000266008,0.00192073,0.076441148,-0.00680644,0.012859817
5.532,-0.000267684,0.001920864,0.076442148,-0.006808352,0.012860052734374999
5.536,-0.000264499,0.001921669,0.076443492,-0.006812442,0.012861929687499999
5.54,-0.000264298,0.001921333,0.076443523,-0.006813314,0.012863137
5.544,-0.000266578,0.001921266,0.076443594,-0.006815125,0.012862566
5.548,-0.00026869,0.00192083,0.076444836,-0.006817337,0.01286079
5.552,-0.000266913,0.001922004,0.076446945,-0.006820958,0.012857303
5.556,-0.000264902,0.001924753,0.076449328,-0.006822299,0.012856431640624999
5.56,-0.000264633,0.001926027,0.076449094,-0.006819718,0.012856767
5.564,-0.000266176,0.001924887,0.076448289,-0.006818477,0.012856767
5.568,-0.000269461,0.001922775,0.076447617,-0.006818075,0.012856767
5.572,-0.000269126,0.001921769,0.076448586,-0.006819349,0.012854083984374999
5.576,-0.000267684,0.001922339,0.076450633,-0.006821227,0.012854018
5.58,-0.000266947,0.001922775,0.076450906,-0.006822835,0.012855895
5.584,-0.000267919,0.001923077,0.076450703,-0.00682525,0.012854755
5.588,-0.000267416,0.001922339,0.076450531,-0.006828971,0.012852944
5.592,-0.000264935,0.001922943,0.076450703,-0.00683162,0.012852106445312499
5.596,-0.000263561,0.001924954,0.076452781,-0.006834838,0.012853078124999999
5.6,-0.000267684,0.001927201,0.076455734,-0.006837085,0.012855089843749999
5.604,-0.000267718,0.001925424,0.076453922,-0.00683447,0.012853112304687499
5.608,-0.000269629,0.001923848,0.076452375,-0.006833162,0.012851436
5.612,-0.000270367,0.001923747,0.076452578,-0.006832726,0.012851436
5.616,-0.000266511,0.001924753,0.076453719,-0.006835375,0.012852542
5.62,-0.000267785,0.00192586,0.076454492,-0.006837688,0.012853447
5.624,-0.000269126,0.001924686,0.076453555,-0.00683742,0.012852911132812499
5.628,-0.000271808,0.001921903,0.076452945,-0.006836984,0.012853246
5.632,-0.000274122,0.001919355,0.07645268,-0.006839063,0.012855358398437499
5.636,-0.000272378,0.00191959,0.076453117,-0.006843053,0.012857739257812499
5.64,-0.000270132,0.001920596,0.07645332,-0.006844696,0.012856532
5.644,-0.000271205,0.00191959,0.076452648,-0.006844964,0.012855761
5.648,-0.000269461,0.001917209,0.076452078,-0.00684768,0.012854453
5.652,-0.000268657,0.001916405,0.076452781,-0.006850597,0.012853414062499999
5.656,-0.000267617,0.001918249,0.076453117,-0.006851401,0.012853916992187499
5.66,-0.000269696,0.001918852,0.076453484,-0.00685073,0.012854788085937499
5.664,-0.000271942,0.001918349,0.076453281,-0.006851368,0.012854755
5.668,-0.000275396,0.001918417,0.076452844,-0.006852307,0.012853414062499999
5.672,-0.000279721,0.001917645,0.076453086,-0.006851334,0.012853983
5.676,-0.000279386,0.001917779,0.076451672,-0.006850496,0.012854586914062499
5.68,-0.000276737,0.001918115,0.076451609,-0.006853111,0.012856196
5.684,-0.000278246,0.001916137,0.076451773,-0.006853413,0.012856264
5.688,-0.000282101,0.00191389,0.076452781,-0.006852407,0.012855157226562499
5.692,-0.000284817,0.001913387,0.076454961,-0.006855357,0.012855258
5.696,-0.000283711,0.001915868,0.076456,-0.006857872,0.012856364257812499
5.7,-0.000282839,0.001917612,0.076455164,-0.006857604,0.012857437499999999
5.704,-0.000283208,0.001916941,0.076453484,-0.006858542,0.012857101562499999
5.708,-0.000284985,0.0019155,0.076453383,-0.006861325,0.012856767
5.712,-0.000285018,0.001916237,0.076454156,-0.00686384,0.0128568
5.716,-0.000281699,0.0019155,0.076452445,-0.006862667,0.012856297
5.72,-0.00028237,0.00191322,0.076450938,-0.006859481,0.012854755
5.724,-0.000282403,0.001911745,0.076450672,-0.006860655,0.012852207
5.728,-0.000283811,0.00191151,0.076451375,-0.006863203,0.012849692
5.732,-0.000285555,0.001911309,0.076452039,-0.006861493,0.012847814
5.736,-0.000282839,0.001910839,0.076451672,-0.006860152,0.012847713867187499
5.74,-0.000282537,0.001911208,0.076451742,-0.006863505,0.012848485
5.744,-0.000287198,0.001910672,0.076451945,-0.006865416,0.012849122
5.748,-0.000289913,0.001910001,0.076451609,-0.006867193,0.012848083007812499
5.752,-0.000288974,0.001909699,0.076450602,-0.006870411,0.012847278320312499
5.756,-0.000286326,0.001908995,0.076450531,-0.006870378,0.01284711
5.76,-0.000285756,0.001907855,0.076449695,-0.006867662,0.01284587
5.764,-0.000288371,0.001906816,0.076448156,-0.006867125,0.012844294
5.768,-0.000287198,0.001905743,0.076447047,-0.006868601,0.012841646
5.772,-0.00028884,0.001904,0.076447016,-0.006868165,0.012841209960937499
5.776,-0.000289276,0.001904301,0.076447953,-0.006868165,0.012839533
5.78,-0.00028931,0.001904503,0.076448023,-0.006867964,0.012838695312499999
5.784,-0.000290047,0.001904637,0.076447414,-0.006869104,0.012837320312499999
5.788,-0.000291321,0.001903899,0.076447078,-0.006871048,0.012836784
5.792,-0.000294004,0.001903865,0.076448656,-0.006872825,0.012837991
5.796,-0.00029169,0.001905307,0.076449359,-0.006875072,0.012838562
5.8,-0.000287767,0.001907118,0.076450031,-0.00687933,0.012840003
5.804,-0.000285957,0.00190514,0.076448258,-0.006882548,0.012840204101562499
5.808,-0.00028713,0.001903161,0.076447852,-0.006884393,0.012838595
5.812,-0.000288639,0.001903463,0.076448961,-0.006885029,0.012836751
5.816,-0.000287097,0.001904301,0.076449633,-0.006885063,0.012836449218749999
5.82,-0.000287365,0.001905341,0.076450266,-0.006886136,0.012836817382812499
5.824,-0.000292227,0.001905307,0.076450703,-0.006887477,0.01283608
5.828,-0.000296183,0.00190457,0.076450633,-0.006887142,0.012834638671874999
5.832,-0.000298228,0.001904972,0.076452547,-0.006886605,0.012833666
5.836,-0.000296853,0.001905307,0.076452609,-0.006884828,0.012833532
5.84,-0.000296552,0.001905408,0.076452445,-0.00688342,0.012831486328124999
5.844,-0.000297658,0.001905307,0.076451711,-0.006882347,0.012829441
5.848,-0.000299837,0.001904469,0.076451539,-0.006883722,0.012828637
5.852,-0.000299871,0.001904167,0.076451539,-0.006884594,0.012828737304687499
5.856,-0.000301179,0.001904402,0.076451875,-0.006883252,0.012828804687499999
5.86,-0.000304732,0.001905877,0.076453555,-0.006884896,0.012830648
5.864,-0.000306342,0.001906246,0.076453148,-0.006887443,0.012831151
5.868,-0.000306677,0.00190467,0.076451805,-0.006885767,0.012830078
5.872,-0.000306174,0.001900747,0.076450063,-0.006883521,0.012828973
5.876,-0.000304699,0.001899742,0.076449664,-0.006883454,0.012827698
5.88,-0.000305571,0.001900881,0.076449766,-0.006882984,0.012826961
5.884,-0.000305738,0.001900714,0.076448523,-0.006885029,0.012825719726562499
5.888,-0.000302888,0.001898937,0.076447414,-0.006888986,0.012823976562499999
5.892,-0.000305034,0.001897965,0.076448258,-0.006888852,0.012823674804687499
5.896,-0.000306644,0.00189887,0.076449727,-0.006887946,0.012824446
5.9,-0.00030366,0.001899976,0.076449227,-0.006889455,0.012823071
5.904,-0.000301749,0.001900211,0.076448523,-0.006892942,0.012818914062499999
5.908,-0.000302654,0.001900312,0.076448758,-0.006895691,0.012818277
5.912,-0.000303995,0.001900379,0.076449594,-0.006898642,0.012818612
5.916,-0.000304062,0.001900881,0.076450195,-0.006899949,0.012819551
5.92,-0.000302754,0.00190172,0.076451,-0.006900553,0.01282069
5.924,-0.000304464,0.001899708,0.076449531,-0.006899782,0.012820925781249999
5.928,-0.000306107,0.001897931,0.076448758,-0.006901022,0.012820355
5.932,-0.00030775,0.00189773,0.076450133,-0.006902564,0.012820456
5.936,-0.000306442,0.001898468,0.076451477,-0.006904375,0.012820657226562499
5.94,-0.000305269,0.001898803,0.076452414,-0.006905313,0.012819986
5.944,-0.000303458,0.001897596,0.076450469,-0.006906051,0.012816366
5.948,-0.000302788,0.001895651,0.076449297,-0.006907023,0.012813314453124999
5.952,-0.000303324,0.001895282,0.076451438,-0.006907661,0.012813751
5.956,-0.00030081,0.001896456,0.076453516,-0.006909739,0.012814254
5.96,-0.000300642,0.001896624,0.076453953,-0.006912086,0.012816802
5.964,-0.00030148,0.001895517,0.07645218,-0.006913628,0.012817707
5.968,-0.000301581,0.001894109,0.076451805,-0.006916311,0.012816567
5.972,-0.000300977,0.001892332,0.076452375,-0.006916847,0.012816533
5.976,-0.000299703,0.001891997,0.076452609,-0.006916042,0.012816869
5.98,-0.000298027,0.001891661,0.076451203,-0.006915473,0.012816231
5.984,-0.000300642,0.001890253,0.076450266,-0.006916813,0.012816869
5.988,-0.000306174,0.001889784,0.076451539,-0.006918188,0.01281774
5.992,-0.000307515,0.001890019,0.07645318,-0.006919965,0.01281774
5.996,-0.000308018,0.001891863,0.076455633,-0.006921239,0.012817673828124999
6,-0.000308387,0.001894411,0.076457273,-0.006921943,0.012816936
6.004,-0.000309762,0.001896355,0.076458313,-0.00692533,0.012817136718749999
6.008,-0.000309259,0.001896154,0.076458242,-0.006926369,0.012816634
6.012,-0.000307951,0.001894578,0.076457305,-0.00692647,0.012815729
6.016,-0.000306912,0.001894746,0.076458313,-0.006929018,0.012814757
6.02,-0.000306912,0.00189478,0.076458281,-0.006929286,0.01281422
6.024,-0.000307314,0.00189488,0.076459117,-0.006929621,0.012812477
6.028,-0.000306677,0.00189478,0.076459688,-0.006930895,0.012811136
6.032,-0.000307113,0.001895115,0.076459555,-0.006932102,0.0128109
6.036,-0.000307549,0.001895383,0.076460563,-0.006932035,0.012812175
6.04,-0.000305705,0.00189602,0.076460422,-0.006931968,0.012809693359374999
6.044,-0.000307582,0.001894411,0.076459719,-0.006931532,0.012807246093749999
6.048,-0.000309091,0.001892801,0.076460492,-0.006932672,0.012805369
6.052,-0.000312109,0.001892332,0.076462172,-0.00693455,0.012806542
6.056,-0.000309829,0.001892399,0.076462406,-0.006935053,0.012807984
6.06,-0.000306509,0.001892801,0.076460563,-0.006933979,0.012806308
6.064,-0.00031127,0.001893573,0.076461328,-0.006934784,0.012805201171874999
6.068,-0.000313852,0.001893405,0.07646143,-0.006936159,0.012804899
6.072,-0.000314053,0.001893573,0.076462102,-0.006936964,0.012804262695312499
6.076,-0.000311639,0.001894813,0.076463172,-0.00693683,0.01280272
6.08,-0.000306074,0.00189478,0.076461836,-0.006938942,0.012801814
6.084,-0.000305671,0.001892835,0.076460656,-0.006940752,0.012801145
6.088,-0.000310164,0.001891159,0.076461898,-0.006943435,0.012801446289062499
6.092,-0.000311371,0.001891896,0.076464383,-0.006947391,0.012801278
6.096,-0.0003107,0.001893371,0.076465187,-0.006946653,0.012800909
6.1,-0.000311874,0.00189364,0.076465148,-0.006943602,0.012801245117187499
6.104,-0.000313014,0.001891393,0.076463781,-0.00694263,0.012800674804687499
6.108,-0.000315227,0.001888208,0.076460891,-0.006940182,0.012798796874999999
6.112,-0.00031516,0.001886062,0.076459453,-0.006939277,0.012796518
6.116,-0.000312611,0.001886901,0.076460563,-0.006941624,0.012797591
6.12,-0.000314053,0.001887303,0.076460594,-0.006941121,0.012800038
6.124,-0.000315461,0.001886029,0.07645875,-0.006939478,0.012799434570312499
6.128,-0.000316333,0.001883447,0.076456164,-0.006937835,0.012798663
6.132,-0.000317406,0.001881838,0.076456672,-0.006940451,0.012798629882812499
6.136,-0.00031754,0.001883883,0.07645875,-0.006943803,0.012799702
6.14,-0.000313617,0.0018868,0.076459555,-0.006947324,0.012799736
6.144,-0.000315394,0.001886934,0.076458719,-0.006949268,0.012798428710937499
6.148,-0.000317976,0.001886331,0.07645868,-0.006947827,0.012796182617187499
6.152,-0.000315227,0.001885392,0.076457813,-0.006947592,0.012794573
6.156,-0.000315327,0.001884989,0.076457242,-0.006945882,0.012794506
6.16,-0.000315864,0.001885358,0.076457945,-0.006944675,0.012795612304687499
6.164,-0.000315662,0.00188452,0.076457508,-0.006943435,0.012795444
6.168,-0.000318043,0.001883414,0.076458109,-0.006943602,0.012794036132812499
6.172,-0.000319552,0.001884554,0.076461195,-0.006946083,0.012793266
6.176,-0.000317004,0.0018868,0.076463211,-0.006948263,0.012792595
6.18,-0.000314288,0.001886901,0.076463508,-0.006946418,0.012790583
6.184,-0.00031697,0.001885962,0.076462805,-0.00694558,0.012789175
6.188,-0.000316735,0.001884151,0.076461031,-0.006948564,0.012786828
6.192,-0.00031231,0.001883782,0.076463008,-0.006954733,0.012784212890624999
6.196,-0.000312008,0.001884587,0.076465148,-0.006955605,0.012784347
6.2,-0.000312947,0.001884453,0.076464781,-0.006953996,0.012783878
6.204,-0.000309996,0.001883011,0.076463344,-0.006957416,0.012782168
6.208,-0.000310533,0.001882106,0.076462203,-0.006959092,0.012780424
6.212,-0.000312611,0.001881167,0.076462773,-0.00695755,0.012779352
6.216,-0.000315897,0.001881905,0.076463273,-0.006953761,0.012779384765624999
6.22,-0.000317305,0.001883179,0.076462836,-0.00695138,0.012779519
6.224,-0.000317641,0.001882374,0.076461031,-0.006951951,0.012779384765624999
6.228,-0.000317507,0.001879089,0.076459117,-0.006953426,0.012776568359374999
6.232,-0.0003164,0.00187701,0.076458984,-0.006954096,0.012775059570312499
6.236,-0.000317004,0.001877144,0.076459383,-0.006953459,0.012776804
6.24,-0.000316668,0.001877479,0.076460758,-0.006955974,0.012778512695312499
6.244,-0.000316702,0.00187815,0.076462266,-0.006960031,0.012778613
6.248,-0.000320055,0.001877077,0.076462031,-0.006960835,0.012779317382812499
6.252,-0.000321899,0.001876306,0.076462336,-0.006961808,0.012779485
6.256,-0.000319149,0.001876205,0.076462172,-0.006962411,0.012779352
6.26,-0.000317238,0.001876339,0.076461367,-0.006961741,0.012778580078124999
6.264,-0.000318278,0.00187473,0.076460055,-0.00695983,0.012776903
6.268,-0.000320155,0.001872282,0.076457406,-0.00695755,0.012775831054687499
6.272,-0.000322536,0.001871847,0.076456633,-0.006955672,0.012773786
6.276,-0.000321161,0.001872852,0.076457406,-0.00695594,0.012774254882812499
6.28,-0.000320055,0.001872953,0.076458148,-0.006956846,0.012774993
6.284,-0.000320356,0.001871813,0.07645657,-0.006956879,0.012774590820312499
6.288,-0.00032096,0.001871377,0.076455023,-0.006958455,0.012773115
6.292,-0.000322267,0.001872115,0.076456062,-0.006962411,0.012773148
6.296,-0.000323944,0.001873992,0.076457742,-0.006964121,0.012775965
6.3,-0.000327162,0.001875065,0.076457438,-0.006961673,0.012778547
6.304,-0.000329778,0.001875635,0.076456234,-0.006962512,0.012779317382812499
6.308,-0.000329174,0.001874864,0.0764565,-0.006965496,0.012777977
6.312,-0.000331756,0.001874194,0.076457141,-0.006967642,0.012780056
6.316,-0.00033256,0.001873557,0.076456336,-0.006966435,0.012783677
6.32,-0.000331655,0.001873624,0.076456,-0.006968111,0.01278656
6.324,-0.000332661,0.00187302,0.076454656,-0.006970692,0.012789007
6.328,-0.000332963,0.001871143,0.076452883,-0.006972101,0.012789879
6.332,-0.000332996,0.0018696,0.076452211,-0.006974816,0.012791722656249999
6.336,-0.000332326,0.001870438,0.07645332,-0.00697951,0.012796047851562499
6.34,-0.000330281,0.001871109,0.076452313,-0.006981488,0.012798595703124999
6.344,-0.000334404,0.00186903,0.076451508,-0.006981421,0.012800708
6.348,-0.000335645,0.001865912,0.076450906,-0.006984037,0.012802653
6.352,-0.000336215,0.001864638,0.076451609,-0.006986115,0.012804396
6.356,-0.000332627,0.001864236,0.076450234,-0.006987959,0.012804799
6.36,-0.000332694,0.001864437,0.076451141,-0.006989703,0.012805737
6.364,-0.00033427,0.001864504,0.076450969,-0.006993223,0.012808855
6.368,-0.00033531,0.001862325,0.076448859,-0.006993256,0.012810096
6.372,-0.000336248,0.001861352,0.076447516,-0.006993491,0.012808654
6.376,-0.000334673,0.00186199,0.076447617,-0.006995067,0.012808487
6.38,-0.000330448,0.001861051,0.076445937,-0.006995302,0.012807917
6.384,-0.000331756,0.001858804,0.076443727,-0.006993827,0.012805536
6.388,-0.00033256,0.001856994,0.076441984,-0.006994966,0.012803122070312499
6.392,-0.000331152,0.001855653,0.076441281,-0.006996039,0.012802183593749999
6.396,-0.000333767,0.001856122,0.076442289,-0.006995402,0.012803624999999999
6.4,-0.000334136,0.001858067,0.076441953,-0.006994497,0.012802888
6.404,-0.000333734,0.001857229,0.076440742,-0.006994095,0.012801110351562499
6.408,-0.000334539,0.001856089,0.076441383,-0.006997615,0.012800373046874999
6.412,-0.000332762,0.001855686,0.076442992,-0.007000331,0.012799636
6.416,-0.000334136,0.001857027,0.076445039,-0.007000935,0.012801613281249999
6.42,-0.000336751,0.001858771,0.076445875,-0.007002141,0.012804329
6.424,-0.000337053,0.001858067,0.076445305,-0.007003416,0.012804229
6.428,-0.000335779,0.00185629,0.07644393,-0.007006969,0.012802485
6.432,-0.000335343,0.001856558,0.076444164,-0.007007472,0.012800875976562499
6.436,-0.000335108,0.001856558,0.076443727,-0.007002309,0.01280034
6.44,-0.000335611,0.001854781,0.076441984,-0.006998923,0.012798796874999999
6.444,-0.000337657,0.001853708,0.076440711,-0.006998789,0.012797523
6.448,-0.000340942,0.001852904,0.076439641,-0.006999225,0.012797188476562499
6.452,-0.000343759,0.001851864,0.07644007,-0.006997783,0.012796550781249999
6.456,-0.000344161,0.001853842,0.07644175,-0.00699842,0.012796685546874999
6.46,-0.000341412,0.001855653,0.076442391,-0.007000264,0.012797959
6.464,-0.000339936,0.001855418,0.076442148,-0.007003315,0.012796852539062499
6.468,-0.000339031,0.001854446,0.076442289,-0.007008512,0.012795947
6.472,-0.000337724,0.001853876,0.076442625,-0.007012233,0.01279578
6.476,-0.000336483,0.001854278,0.076443195,-0.007013775,0.012796618164062499
6.48,-0.000333667,0.001855686,0.076444328,-0.007014379,0.012795947
6.484,-0.000335511,0.001856525,0.076444836,-0.007016726,0.012795679687499999
6.488,-0.000337489,0.001855284,0.076443461,-0.007020582,0.01279645
6.492,-0.00033769,0.001855049,0.076443227,-0.007022124,0.012796249
6.496,-0.00033826,0.00185582,0.076444531,-0.007023096,0.012796417
6.5,-0.000337858,0.001856256,0.076444398,-0.007022928,0.012796383789062499
6.504,-0.000337489,0.001854479,0.076441445,-0.007022526,0.01279474
6.508,-0.000337858,0.001853339,0.076440813,-0.007024068,0.012792394
6.512,-0.000341713,0.00185344,0.076442117,-0.00702494,0.012793399
6.516,-0.000342887,0.001852937,0.076441484,-0.007023331,0.012795109374999999
6.52,-0.000342451,0.001851931,0.076439938,-0.00701971,0.012794774
6.524,-0.00034111,0.001849752,0.076436891,-0.007018302,0.012792427
6.528,-0.000341948,0.001849115,0.076436383,-0.007020414,0.012790113
6.532,-0.000342384,0.001848646,0.076437391,-0.007022459,0.012790583
6.536,-0.000344966,0.001848746,0.076439234,-0.007022358,0.012791488
6.54,-0.000346474,0.001850154,0.076439438,-0.007020883,0.012791052734374999
6.544,-0.000349257,0.001849819,0.076438367,-0.007021051,0.012790784179687499
6.548,-0.000352576,0.00184821,0.076438836,-0.007020246,0.01279008
6.552,-0.000352912,0.001848478,0.076439906,-0.00701924,0.012788136
6.556,-0.000351973,0.001849014,0.07644007,-0.007017731,0.012786896
6.56,-0.000352107,0.001849785,0.076440375,-0.007017128,0.012787197
6.564,-0.000354119,0.001849584,0.07644125,-0.007020179,0.012786191
6.568,-0.000355091,0.001849148,0.076441852,-0.007023197,0.012784884
6.572,-0.000355795,0.001850188,0.076442352,-0.007022996,0.012784045
6.576,-0.000352912,0.001849819,0.076442422,-0.007022895,0.012782302
6.58,-0.000353146,0.001849584,0.076443828,-0.007023163,0.012782334960937499
6.584,-0.000355091,0.00184992,0.076443695,-0.007027354,0.012783308
6.588,-0.000356466,0.001849651,0.076443594,-0.007030472,0.012783677
6.592,-0.000355493,0.001849953,0.076444297,-0.00703064,0.012781127929687499
6.596,-0.000356801,0.001849651,0.076445437,-0.007027689,0.012780726
6.6,-0.000355694,0.001848847,0.076443664,-0.007025879,0.012782436
6.604,-0.000356432,0.001847841,0.076442656,-0.007025577,0.012781630859374999
6.608,-0.000358041,0.001848578,0.076444195,-0.007027455,0.012780021
6.612,-0.000357874,0.001849182,0.076445102,-0.007029433,0.012779653320312499
6.616,-0.00035727,0.00184992,0.076445641,-0.007029667,0.012781698
6.62,-0.000356097,0.001850657,0.076445172,-0.00703007,0.012783039
6.624,-0.000357002,0.00185059,0.076443758,-0.007028293,0.012780624999999999
6.628,-0.000360489,0.00184888,0.076443664,-0.00702893,0.012780257
6.632,-0.000362735,0.001849417,0.076446578,-0.007033221,0.012780826171874999
6.636,-0.000360958,0.001852199,0.076448555,-0.00703473,0.01278153
6.64,-0.000357773,0.001853272,0.076448352,-0.007035971,0.012782234
6.644,-0.0003566,0.001852199,0.076446344,-0.007037647,0.012781296
6.648,-0.000359282,0.001849517,0.076445844,-0.007037949,0.012778580078124999
6.652,-0.000360455,0.001849215,0.076446883,-0.007036742,0.012776836914062499
6.656,-0.000358645,0.001849886,0.076447484,-0.007036004,0.012777138671874999
6.66,-0.000357304,0.001849685,0.076446344,-0.007035501,0.012777138671874999
6.664,-0.00035841,0.001848377,0.076445437,-0.007037815,0.012777138671874999
6.668,-0.000359952,0.001847036,0.076445273,-0.007040832,0.012775597
6.672,-0.000359952,0.00184603,0.076445406,-0.007041872,0.012774456
6.676,-0.000360422,0.00184717,0.076446242,-0.007044185,0.01277516
6.68,-0.000361126,0.001848478,0.076446414,-0.007045392,0.012775462
6.684,-0.000362735,0.001848411,0.076445508,-0.007046499,0.012774222
6.688,-0.000367295,0.001846533,0.076445437,-0.007047404,0.012772947
6.692,-0.000367966,0.001845762,0.076445672,-0.007047471,0.012771774
6.696,-0.00036706,0.00184717,0.076446609,-0.007047571,0.012771707
6.7,-0.000365853,0.001848981,0.076447617,-0.007048577,0.012771271
6.704,-0.000364445,0.001848813,0.076447313,-0.007050253,0.012769964
6.708,-0.000367127,0.001847472,0.076448453,-0.007053338,0.012769259765624999
6.712,-0.000367932,0.001845896,0.076448117,-0.007054612,0.012770802
6.716,-0.000366356,0.00184536,0.07644725,-0.007052667,0.012770432617187499
6.72,-0.00036696,0.001844991,0.076447016,-0.007050958,0.01277003
6.724,-0.00036763,0.001843885,0.076446609,-0.007052567,0.012769259765624999
6.728,-0.000367764,0.001842946,0.076446414,-0.007055886,0.012768420898437499
6.732,-0.000369575,0.001842912,0.076447852,-0.0070583,0.012768153
6.736,-0.000369508,0.001844119,0.076448789,-0.00705887,0.01276879
6.74,-0.00036867,0.001844387,0.076446742,-0.007057361,0.012769394
6.744,-0.000367094,0.001843248,0.076445234,-0.007058367,0.012767281
6.748,-0.000369273,0.001843281,0.076446109,-0.007061854,0.012765236328124999
6.752,-0.000371184,0.001843784,0.076448055,-0.007064872,0.012765136
6.756,-0.000368938,0.001843818,0.076447781,-0.007063899,0.012765168945312499
6.76,-0.000369508,0.00184422,0.076447281,-0.007063229,0.012764968
6.764,-0.000373531,0.001843985,0.07644668,-0.007061083,0.012764097
6.768,-0.000375811,0.001843315,0.076446844,-0.007061116,0.012762956
6.772,-0.000373598,0.001843717,0.076448188,-0.007063665,0.012761749
6.776,-0.000370715,0.00184432,0.076448789,-0.007065709,0.012760777
6.78,-0.000370782,0.001844689,0.076448922,-0.007065709,0.012760375
