time,F8,F4,Fz,F3,F7
0,-0.002184525,0.011486929,0.083790938,0.022074412,0.27932303124999996
0.004,-0.002184726,0.011487868,0.0837905,0.022075016,0.279322594
0.008,-0.002186201,0.011489778,0.083791508,0.022077832031249998,0.279321906
0.012,-0.002184458,0.011490013671874999,0.083791672,0.022078402343749998,0.279323813
0.016,-0.002184592,0.011488772,0.083790836,0.022078234,0.279323438
0.02,-0.002184022,0.011487868,0.0837905,0.022078066,0.279323281
0.024,-0.002185933,0.011486795,0.083792273,0.02208075,0.279321531
0.028,-0.002184391,0.011485487,0.08379268,0.022081252,0.279322563
0.032,-0.00218657,0.011484012,0.083792844,0.022080916,0.279321594
0.036,-0.002186637,0.011484984,0.083792914,0.022081084,0.279321313
0.04,-0.002183184,0.011485588,0.083792375,0.022081018,0.27932340624999996
0.044,-0.002180803,0.011485856,0.083792609,0.022081756,0.279325281
0.048,-0.002179328,0.011485386718749999,0.083792109,0.022081051,0.2793265
0.052,-0.002177484,0.011485152,0.083791703,0.022078300781249997,0.27932821874999997
0.056,-0.002176981,0.011485186,0.083792078,0.022078,0.279328406
0.06,-0.00217782,0.011484683,0.083791,0.022079273437499998,0.279327969
0.064,-0.002176847,0.01148418,0.083789328,0.022078234,0.279329094
0.068,-0.002176981,0.011483476,0.083788625,0.022078201,0.27932956249999996
0.072,-0.002178423,0.011482168,0.083789391,0.022078267578124998,0.279329063
0.076,-0.002175607,0.011482671,0.083788922,0.022076927734374998,0.27933096874999996
0.08,-0.002171919,0.011481899,0.083787117,0.022074781249999998,0.27933375
0.084,-0.002178993,0.01148304,0.083789156,0.022077865,0.2793285
0.088,-0.002178557,0.011485756,0.083790664,0.022078604,0.279328469
0.092,-0.002174333,0.011484481,0.083789664,0.022076960937499997,0.279331906
0.096,-0.002175674,0.011483073242187499,0.083789594,0.022077027,0.279330438
0.1,-0.00217393,0.011479754,0.083788219,0.022077096,0.279330875
0.104,-0.002171651,0.011479821289062499,0.08378725,0.022076357421874998,0.27933274999999996
0.108,-0.002170611,0.011480425,0.083787953,0.022076223,0.279334031
0.112,-0.002172254,0.011481263,0.083789094,0.022077129,0.279333
0.116,-0.002174567,0.011482704,0.083790336,0.022079708984374998,0.279330438
0.12,-0.002170812,0.011483442382812499,0.083788922,0.022078805,0.27933296874999997
0.124,-0.002170645,0.011484112304687499,0.083788789,0.022079207,0.279333156
0.128,-0.002169907,0.011483106,0.083788188,0.022078871,0.279334344
0.132,-0.002172154,0.011483006,0.083789961,0.022080146,0.279332625
0.136,-0.002171684,0.011483073242187499,0.08379057,0.022080414062499998,0.27933296874999997
0.14,-0.00217098,0.011482905,0.083789898,0.022080012,0.27933281249999997
0.144,-0.002171617,0.011482235,0.08378882,0.022080312499999998,0.27933259374999997
0.148,-0.002171449,0.011482973,0.083789359,0.022080381,0.279333219
0.152,-0.002170444,0.011482804687499999,0.083789664,0.022081051,0.2793345
0.156,-0.002170947,0.01148247,0.08379057,0.022083498,0.279334313
0.16,-0.002167795,0.011482738,0.083789625,0.022081789,0.27933625
0.164,-0.002167627,0.011482067382812499,0.083789898,0.022080414062499998,0.27933578124999997
0.168,-0.002166789,0.011481363281249999,0.0837905,0.022080312499999998,0.27933712499999996
0.172,-0.002167627,0.011479318359374999,0.083790531,0.02208075,0.279337094
0.176,-0.002170812,0.011478982421874999,0.083790805,0.022081822,0.27933393749999996
0.18,-0.00217098,0.011480491210937499,0.083790297,0.022083096,0.279333156
0.184,-0.002169136,0.011480558593749999,0.083789727,0.022083801,0.279334938
0.188,-0.00216984,0.011479620117187499,0.083790031,0.022084236,0.27933512499999996
0.192,-0.002169035,0.011479218,0.083789328,0.022083699,0.279335813
0.196,-0.002166923,0.011478212,0.08378782,0.022082894531249998,0.279337
0.2,-0.002167694,0.011478949,0.083788219,0.022084203,0.279336188
0.204,-0.002168935,0.011478916,0.083789625,0.022085275,0.279335094
0.208,-0.002165683,0.011478446,0.083788219,0.022082425781249998,0.279338188
0.212,-0.00216813,0.011478715,0.083788656,0.022082996093749998,0.279336625
0.216,-0.002170209,0.011480961,0.083789695,0.022083531,0.27933453124999996
0.22,-0.002168968,0.011481564453124999,0.083788961,0.022082225,0.279335031
0.224,-0.002161223,0.011479452,0.083785773,0.022078738,0.279340781
0.228,-0.002162363,0.011479117187499999,0.08378507,0.022077297,0.279340781
0.232,-0.002168197,0.011480592,0.083787719,0.022080312499999998,0.27933575
0.236,-0.002167459,0.011481295898437499,0.083788961,0.022081486,0.27933593749999996
0.24,-0.002165951,0.011483073242187499,0.083789664,0.022082594,0.279336781
0.244,-0.002164073,0.011483408,0.083788625,0.022081688,0.279338281
0.248,-0.002164174,0.011483509,0.083788922,0.022082393,0.279338594
0.252,-0.002164073,0.011482269,0.083789125,0.022084102,0.279338813
0.256,-0.002162498,0.011481531,0.083787313,0.022084906249999998,0.279339625
0.26,-0.002159279,0.011481431,0.083785031,0.022083699,0.27934171874999997
0.264,-0.002158105,0.011480928,0.083783562,0.022083969,0.279343094
0.268,-0.002157871,0.011479552734374999,0.083783797,0.022084371,0.279343813
0.272,-0.002156731,0.011477475,0.083782289,0.022082795,0.27934506249999996
0.276,-0.002153344,0.011477306640624999,0.083781047,0.022081285156249998,0.27934684374999996
0.28,-0.002154451,0.011477608,0.08378118,0.022082359,0.279345781
0.284,-0.002159178,0.011478278,0.083782586,0.022084371,0.279342125
0.288,-0.002160586,0.011478614,0.083782617,0.022084335937499998,0.279341594
0.292,-0.002160251,0.011478312499999999,0.083782047,0.022084102,0.279342781
0.296,-0.002159379,0.011479117187499999,0.083781109,0.022084537,0.27934365624999996
0.3,-0.002157569,0.011479620117187499,0.083780445,0.022084504,0.27934431249999997
0.304,-0.002158474,0.011480391,0.083781078,0.022086013671874998,0.279343813
0.308,-0.002158575,0.011478982421874999,0.083781914,0.022087287,0.27934409374999997
0.312,-0.002156194,0.011478346,0.08378175,0.022086347656249998,0.279345625
0.316,-0.00215435,0.011478043945312499,0.083781211,0.022085846,0.27934728124999997
0.32,-0.002153344,0.011476871093749999,0.083779969,0.022085107,0.279347781
0.324,-0.002153881,0.011477206,0.083779398,0.022084773,0.279347844
0.328,-0.002153847,0.011477574,0.083779438,0.022084975,0.279348375
0.332,-0.002151433,0.011475194,0.083776984,0.022082594,0.279351188
0.336,-0.002158172,0.011475966,0.08377843,0.022085578124999998,0.279345938
0.34,-0.002154082,0.011477306640624999,0.0837785,0.022085945312499997,0.279348156
0.344,-0.002150427,0.011476871093749999,0.083777258,0.022084236,0.279351031
0.348,-0.002149355,0.01147563,0.083776484,0.022083164,0.279352094
0.352,-0.002150394,0.011475262,0.083776688,0.022082894531249998,0.279351563
0.356,-0.00214969,0.011475597,0.08377575,0.022082762,0.27935165624999997
0.36,-0.002150595,0.011474825,0.083776555,0.022084672,0.27935125
0.364,-0.002151735,0.011475161,0.083777961,0.022087187499999997,0.279350531
0.368,-0.002151031,0.011474893,0.083778094,0.022086583984374998,0.279351625
0.372,-0.002152372,0.011474724609374999,0.083778734,0.022086818,0.27935106249999997
0.376,-0.002152976,0.011475463,0.083778898,0.022086951171874997,0.27935024999999997
0.38,-0.002147108,0.011475026,0.083776383,0.022084203,0.279354219
0.384,-0.002148248,0.011474759,0.083776922,0.022085007812499998,0.279353375
0.388,-0.002149321,0.011474859,0.083777422,0.022085912109374998,0.279352281
0.392,-0.002148449,0.011474658,0.083777086,0.02208541,0.279353281
0.396,-0.002147343,0.011475026,0.083777961,0.02208675,0.279353781
0.4,-0.002146706,0.011474759,0.083777422,0.022087086,0.279353875
0.404,-0.002146471,0.011475026,0.083778164,0.022087857,0.279354438
0.408,-0.002148148,0.011475060546874999,0.083779602,0.022089266,0.279353969
0.412,-0.002152372,0.011475094,0.083781617,0.022092215,0.279350594
0.416,-0.002150595,0.011474591,0.083781148,0.022092283,0.279351531
0.42,-0.002149489,0.011474523,0.083780742,0.022092383,0.279351625
0.424,-0.002149019,0.011475429,0.083779266,0.022091679687499997,0.279351719
0.428,-0.002145901,0.011474457,0.083776891,0.022088628906249998,0.279354719
0.432,-0.002149154,0.011473082,0.083778094,0.022088962890624998,0.27935284374999997
0.436,-0.002152104,0.011472445,0.083779438,0.022090875,0.27934965624999997
0.44,-0.002152808,0.011472981445312499,0.083778836,0.022091277,0.279349188
0.444,-0.002152708,0.011474791992187499,0.083778297,0.022091511718749998,0.279348781
0.448,-0.002152171,0.011474356,0.083778227,0.022091947,0.279349406
0.452,-0.002151366,0.011473484374999999,0.083778094,0.022091479,0.279350219
0.456,-0.002150126,0.011473585,0.083778125,0.022091646484374998,0.279351469
0.46,-0.002148349,0.011474289,0.083778164,0.022091209,0.279352906
0.464,-0.002147444,0.011475227539062499,0.083778297,0.022092451,0.27935418749999996
0.468,-0.002147745,0.011474188,0.083777156,0.022089968749999998,0.279353781
0.472,-0.00215026,0.011474088,0.083778164,0.0220896,0.27935165624999997
0.476,-0.002148315,0.011475294921874999,0.083777555,0.022089434,0.279353281
0.48,-0.002149992,0.011475328,0.083776719,0.022090875,0.279352313
0.484,-0.002152875,0.011476636,0.083778125,0.022093556640624998,0.279350156
0.488,-0.002156127,0.011477038,0.083779602,0.0220954,0.279348219
0.492,-0.002156965,0.011477139,0.083780539,0.022095166,0.279347313
0.496,-0.002155725,0.011477038,0.083779836,0.022095166,0.279347844
0.5,-0.002154484,0.011477038,0.0837795,0.022095166,0.27934846874999997
0.504,-0.002153378,0.011475932,0.083779336,0.022094562499999998,0.279349188
0.508,-0.002153344,0.011475797851562499,0.0837785,0.022093457,0.27935024999999997
0.512,-0.002154853,0.011475396,0.083777859,0.022094193,0.279349938
0.516,-0.002155356,0.0114761,0.083778328,0.022094395,0.27934906249999997
0.52,-0.002153043,0.011475429,0.083778164,0.022094998046874998,0.27935046874999997
0.524,-0.002149992,0.011473987304687499,0.083776555,0.022094797,0.279353031
0.528,-0.002148651,0.011471170898437499,0.083774844,0.022092953,0.27935478124999996
0.532,-0.002154585,0.011470937,0.083777492,0.022096171874999997,0.27935046874999997
0.536,-0.002151735,0.011473518,0.083777828,0.022096742,0.27935187499999997
0.54,-0.002147913,0.011473518,0.083775984,0.022095066,0.279354531
0.544,-0.002147813,0.011473518,0.083773906,0.022093121093749998,0.279355063
0.548,-0.002151433,0.011472848,0.083774539,0.022093959,0.279352563
0.552,-0.002153344,0.011473215820312499,0.083775711,0.02209473,0.27935143749999997
0.556,-0.002153847,0.011473987304687499,0.083776219,0.022093658203124998,0.279350563
0.56,-0.002152506,0.011473082,0.083775047,0.022092215,0.27935125
0.564,-0.002152607,0.011472277,0.083774844,0.022093658203124998,0.279351188
0.568,-0.002151064,0.011472076,0.08377457,0.022092484,0.279352594
0.572,-0.002149723,0.011471606,0.083773203,0.022090605,0.279353875
0.576,-0.002149355,0.011471170898437499,0.083772594,0.022090539062499998,0.279353906
0.58,-0.002148516,0.011470869,0.083771758,0.022091311,0.27935418749999996
0.584,-0.002149288,0.011470434,0.083771688,0.022091646484374998,0.279353719
0.588,-0.002147343,0.011468991,0.083770953,0.022090037,0.279355531
0.592,-0.002150159,0.011468220703124999,0.083771688,0.022089701,0.279353719
0.596,-0.002149422,0.011468321,0.083770484,0.022088896,0.279353688
0.6,-0.002144896,0.011466578,0.083767836,0.022087521484374997,0.279356656
0.604,-0.00214285,0.011464432,0.083766766,0.022087422,0.279358219
0.608,-0.00214389,0.011462655273437499,0.083765352,0.022087152,0.279357688
0.612,-0.00214332,0.011462688,0.083764547,0.022085945312499997,0.279358094
0.616,-0.002144158,0.011464599609374999,0.083766227,0.022087187499999997,0.279357313
0.62,-0.002141744,0.0114647,0.08376643,0.022087488281249998,0.27935875
0.624,-0.002143957,0.011464499,0.083767,0.022088025,0.27935743749999997
0.628,-0.00214741,0.011464063,0.083770719,0.022091410156249998,0.279354938
0.632,-0.002143554,0.011462722,0.083770383,0.022090002,0.279358156
0.636,-0.00214171,0.011462520507812499,0.083769039,0.022090070312499998,0.279359781
0.64,-0.002143722,0.011461783,0.083768234,0.022091311,0.27935834374999996
0.644,-0.002145968,0.011461615,0.083768508,0.022092652343749998,0.279356719
0.648,-0.002142481,0.011460375,0.083767266,0.022091043,0.27935974999999996
0.652,-0.002140805,0.011459738,0.083765922,0.022089467,0.27936125
0.656,-0.00214228,0.011459502929687499,0.08376582,0.022090338,0.279359656
0.66,-0.002140135,0.011459939,0.083764484,0.022088428,0.279360813
0.664,-0.002140302,0.011460476,0.083763578,0.022086917968749998,0.279361656
0.668,-0.002140068,0.011460677,0.08376207,0.022085443359374998,0.279361656
0.672,-0.002138022,0.011459067,0.083760992,0.022084873,0.27936331249999996
0.676,-0.002136849,0.01145786,0.083760594,0.022083264,0.27936390624999996
0.68,-0.002135675,0.011457759765624999,0.083760328,0.022083297,0.279365
0.684,-0.002136849,0.011458999999999999,0.083760992,0.022084303,0.279364594
0.688,-0.002135843,0.011460508789062499,0.083760961,0.02208417,0.279366031
0.692,-0.002140805,0.011459939,0.083762469,0.022086951171874997,0.279362281
0.696,-0.002141375,0.01146071,0.083762469,0.022087756,0.27936115624999996
0.7,-0.002140436,0.011461783,0.083762367,0.022087891,0.27936137499999997
0.704,-0.002139364,0.011463124,0.083762672,0.022087891,0.27936271874999996
0.708,-0.002141777,0.011461850585937499,0.083762805,0.022088193359374998,0.27936153124999996
0.712,-0.002139766,0.011459135,0.083761898,0.022086516,0.279363
0.716,-0.002138123,0.011458564,0.083760391,0.02208551,0.27936390624999996
0.72,-0.002134904,0.011456955078124999,0.083757305,0.022084303,0.27936596874999997
0.724,-0.002132759,0.011456083984374999,0.083755562,0.022083732,0.27936774999999997
0.728,-0.002130981,0.011456653,0.083754422,0.022081387,0.27936946874999996
0.732,-0.002134469,0.011456955078124999,0.083756,0.022082492,0.279366875
0.736,-0.002134401,0.011458330078124999,0.083757773,0.022084001953124998,0.279366031
0.74,-0.002130412,0.011457827148437499,0.083756602,0.022082324218749998,0.279368813
0.744,-0.002135441,0.01145786,0.083758484,0.022084939,0.279365063
0.748,-0.002133563,0.01145729,0.083758781,0.022085141,0.279366688
0.752,-0.002132323,0.011456988,0.083757141,0.022082492,0.27936774999999997
0.756,-0.0021341,0.011457491,0.083757273,0.022083164,0.27936612499999997
0.76,-0.002133429,0.011456185,0.083757477,0.022085242,0.279366438
0.764,-0.002132993,0.01145538,0.083757375,0.02208665,0.279366594
0.768,-0.002133328,0.011456753906249999,0.083758047,0.022087555,0.279366844
0.772,-0.002133127,0.011457894,0.083758984,0.022087689,0.279366844
0.776,-0.002132188,0.011457659,0.083758383,0.022086684,0.27936774999999997
0.78,-0.002132725,0.011458162,0.083757641,0.022085074,0.27936725
0.784,-0.002129942,0.011458497070312499,0.083757305,0.022083900390624998,0.279368844
0.788,-0.002131116,0.011457324218749999,0.083756875,0.022083834,0.279368781
0.792,-0.002137151,0.011458531249999999,0.083759148,0.02208675,0.279364438
0.796,-0.00213591,0.011460274414062499,0.083759789,0.022087689,0.27936478124999997
0.8,-0.002132591,0.011459537,0.083758617,0.022086818,0.27936731249999996
0.804,-0.002131719,0.011458497070312499,0.083757641,0.022085711,0.279368438
0.808,-0.00213125,0.011458598,0.083757477,0.022085341796874998,0.279369125
0.812,-0.002132356,0.011458464,0.083757242,0.022085678,0.279368594
0.816,-0.002132691,0.011458698242187499,0.083757914,0.02208598,0.279368094
0.82,-0.002127629,0.011458665,0.08375593,0.022084504,0.279370813
0.824,-0.002128735,0.011458765624999999,0.083755734,0.022083768,0.27937028124999996
0.828,-0.002130344,0.011459537,0.083757477,0.022084906249999998,0.279369344
0.832,-0.002128132,0.011459638,0.083756031,0.022083431640624998,0.279371813
0.836,-0.002127327,0.011459335937499999,0.083755297,0.022083029296874997,0.27937206249999996
0.84,-0.002124377,0.011458967,0.083754594,0.022083164,0.279374094
0.844,-0.002128568,0.011457324218749999,0.083755227,0.022085678,0.279371594
0.848,-0.002128132,0.011457759765624999,0.083755695,0.022085242,0.279371875
0.852,-0.002125952,0.011456922,0.083755094,0.02208484,0.279373625
0.856,-0.002125852,0.011456250976562499,0.08375493,0.022085309,0.27937324999999996
0.86,-0.002124846,0.011455313,0.08375432,0.022085779,0.279373531
0.864,-0.002121493,0.011455446289062499,0.08375318,0.022084404,0.2793755
0.868,-0.002120219,0.011454072,0.08375218,0.022082627,0.279377344
0.872,-0.002124712,0.011453469,0.083754156,0.022085476562499998,0.27937406249999996
0.876,-0.002123505,0.011453334,0.083755031,0.022087422,0.279375313
0.88,-0.00212156,0.011454642,0.083754656,0.022087791,0.27937675
0.884,-0.002121024,0.011455647,0.083753586,0.022086281,0.279377313
0.888,-0.002123605,0.011454475,0.083753656,0.022086416,0.27937562499999996
0.892,-0.002121795,0.011453132812499999,0.083752984,0.022085309,0.279377375
0.896,-0.002120756,0.011452831,0.083751906,0.022084605468749997,0.279378406
0.9,-0.002118275,0.011453233,0.083750672,0.022084906249999998,0.279379875
0.904,-0.002117604,0.011452126953124999,0.083750102,0.022084504,0.279380625
0.908,-0.002119079,0.011450249999999999,0.083750398,0.022084102,0.279380188
0.912,-0.002118241,0.011449546,0.083750367,0.022084470703124998,0.279381375
0.916,-0.002117168,0.011450954101562499,0.083749898,0.022084371,0.279381938
0.92,-0.002114989,0.011451088,0.083748758,0.022084001953124998,0.279383125
0.924,-0.002116229,0.011452126953124999,0.083748523,0.022085007812499998,0.279382719
0.928,-0.002118576,0.011452496,0.083750164,0.02208541,0.279381594
0.932,-0.00211985,0.011452463,0.083751141,0.022085912109374998,0.279380688
0.936,-0.002119549,0.011453904,0.083751273,0.022085678,0.279380531
0.94,-0.002118677,0.011454507812499999,0.083750633,0.02208541,0.279380781
0.944,-0.002114083,0.011452328,0.083748117,0.022082762,0.279384281
0.948,-0.00211405,0.011452061,0.083747922,0.022082158,0.27938503124999997
0.952,-0.002110429,0.011450854,0.083746477,0.022080882812499997,0.279388656
0.956,-0.002111938,0.011451155,0.083746812,0.022082258,0.279387219
0.96,-0.002111535,0.011451825,0.083745234,0.022082291015624998,0.279386625
0.964,-0.00211177,0.011450819,0.083743289,0.022080783,0.279387125
0.968,-0.002115492,0.011452629882812499,0.083745172,0.02208323,0.279384625
0.972,-0.002112676,0.011452697265624999,0.083744867,0.022082158,0.279386531
0.976,-0.002113916,0.01145149,0.083745172,0.022083801,0.279385375
0.98,-0.002112944,0.01145139,0.08374557,0.022084068,0.279385
0.984,-0.002111502,0.011450552,0.083744969,0.022084068,0.27938674999999996
0.988,-0.002109591,0.011451222,0.083744531,0.022083398,0.279388469
0.992,-0.002109256,0.011452126953124999,0.083745039,0.022083063,0.279388563
0.996,-0.002103925,0.011451121093749999,0.083743828,0.022082727,0.279392
1,-0.002106775,0.011449948242187499,0.083744336,0.022086046874999998,0.2793895
1.004,-0.002106339,0.011450351,0.083744195,0.022086785,0.279389656
1.008,-0.002105869,0.011450283,0.08374343,0.022085678,0.279390813
1.012,-0.002105836,0.011450652,0.083743828,0.022085912109374998,0.27939125
1.016,-0.002104897,0.011449679687499999,0.083744633,0.022087052734374998,0.279391813
1.02,-0.002104092,0.011447769,0.083744234,0.022086281,0.27939175
1.024,-0.002103221,0.011446628906249999,0.083743531,0.022085813,0.27939290624999996
1.028,-0.002106138,0.011448707,0.083745469,0.022087254,0.27939074999999997
1.032,-0.002107445,0.011450351,0.083747984,0.022089398437499998,0.279390219
1.036,-0.002106372,0.011447467,0.083745406,0.02208883,0.279391063
1.04,-0.002105333,0.011446964,0.083743727,0.022087923828124998,0.2793915
1.044,-0.002105098,0.011447399,0.083744266,0.022088227,0.279391531
1.048,-0.002102282,0.011447366210937499,0.083743328,0.022086583984374998,0.279394406
1.052,-0.002105534,0.011446729,0.083744398,0.022087791,0.27939231249999996
1.056,-0.002105769,0.011447567,0.083745203,0.022089365,0.279391594
1.06,-0.002105299,0.011449277,0.083744367,0.022088293,0.27939225
1.064,-0.002104763,0.011450786,0.083744703,0.022089031,0.279393094
1.068,-0.002100539,0.011450719,0.083744398,0.022088561,0.279395969
1.072,-0.002103321,0.011450585,0.083745375,0.022089533203124997,0.279394344
1.076,-0.002102986,0.011452396,0.083746078,0.022090271,0.279394375
1.08,-0.002102852,0.011453569,0.083746812,0.022090974609374998,0.279394344
1.084,-0.002102483,0.011454273437499999,0.083746945,0.02209235,0.27939474999999997
1.088,-0.002104428,0.011454978,0.083747648,0.022093121093749998,0.27939375
1.092,-0.002102181,0.011454206054687499,0.083747047,0.022091947,0.279395188
1.096,-0.002097789,0.011452999023437499,0.083745406,0.022091209,0.279398
1.1,-0.00209856,0.011453569,0.083745305,0.022092049,0.279397313
1.104,-0.002098125,0.011453233,0.083745508,0.022093322,0.279398
1.108,-0.002098125,0.011452428710937499,0.083746477,0.0220951,0.279398844
1.112,-0.002097856,0.011452261718749999,0.083747219,0.022095635,0.279398969
1.116,-0.002096247,0.011452629882812499,0.083746547,0.022094797,0.279399625
1.12,-0.002098694,0.011451893,0.083747555,0.022096641,0.279397313
1.124,-0.002097655,0.011452898,0.083747414,0.022096475,0.279398188
1.128,-0.002099264,0.011453569,0.083747586,0.022097078,0.279397625
1.132,-0.00209856,0.011453904,0.083746008,0.022095166,0.279398438
1.136,-0.002098359,0.011452664,0.083745141,0.022094764,0.279398156
1.14,-0.002096448,0.011452295,0.083744867,0.022095232,0.279399375
1.144,-0.002095107,0.011451725,0.083744063,0.022095031249999997,0.27940075
1.148,-0.002095878,0.011452026,0.083744133,0.02209483,0.279400125
1.152,-0.002095878,0.011453569,0.083744805,0.022094697265624998,0.2794
1.156,-0.002093498,0.011453334,0.083745469,0.022095635,0.27940125
1.16,-0.002093665,0.011452194335937499,0.083745805,0.022096943,0.279400813
1.164,-0.002096046,0.011452966,0.083747148,0.022099223,0.27939853124999997
1.168,-0.002092156,0.011452831,0.083746984,0.022098451,0.279401156
1.172,-0.002094235,0.011453132812499999,0.083747281,0.022099559,0.279399906
1.176,-0.002097119,0.011455547,0.083749461,0.022102441,0.279397469
1.18,-0.00209561,0.01145491,0.083749766,0.022103883,0.279398
1.184,-0.002093364,0.011454004882812499,0.083748891,0.022103279,0.279399625
1.188,-0.002092492,0.011453636,0.083748727,0.022102777343749998,0.279400781
1.192,-0.002091151,0.011452496,0.083748156,0.022101,0.27940231249999997
1.196,-0.00209048,0.011452026,0.083746914,0.022098016,0.27940284374999996
1.2,-0.002095174,0.011453569,0.083748625,0.022101604,0.279398625
1.204,-0.002091821,0.011455782226562499,0.083748758,0.02210157,0.279400719
1.208,-0.002088737,0.011455078124999999,0.083747516,0.022098922,0.279403469
1.212,-0.00209209,0.011455245,0.083748555,0.022098955,0.279401094
1.216,-0.002093699,0.01145481,0.083749727,0.022100832,0.279399438
1.22,-0.002090614,0.011453937499999999,0.083748219,0.022101,0.279401906
1.224,-0.002093732,0.011454105,0.083748156,0.022101805,0.279400125
1.228,-0.002092525,0.011452428710937499,0.083747852,0.022102039,0.27940149999999997
1.232,-0.002092861,0.011452261718749999,0.083748492,0.022103146,0.27940084374999996
1.236,-0.002093498,0.011453267578124999,0.083749094,0.022104721,0.27940009374999997
1.24,-0.002093364,0.011454676,0.083748391,0.022104687499999998,0.279400125
1.244,-0.002090078,0.01145434,0.083746477,0.022101771484374998,0.27940290624999997
1.248,-0.002086893,0.011452061,0.083744664,0.022099525,0.27940575
1.252,-0.002084948,0.011450182617187499,0.083742992,0.022098553,0.279407969
1.256,-0.002086021,0.011448673828124999,0.083742891,0.022098486,0.27940640624999996
1.26,-0.002084144,0.011449009,0.083742188,0.02209825,0.279407469
1.264,-0.002091754,0.01144978,0.0837445,0.022101268,0.279401781
1.268,-0.002092525,0.011450216,0.083746375,0.022102945,0.279401531
1.272,-0.002089005,0.011449679687499999,0.083746414,0.022102408,0.27940446874999997
1.276,-0.002090883,0.011450115234374999,0.083747016,0.022103783203124998,0.279403375
1.28,-0.002090949,0.01145139,0.083748656,0.022106297,0.27940284374999996
1.284,-0.002089039,0.011452496,0.083749898,0.022107134765624998,0.279403563
1.288,-0.002088971,0.011452061,0.083750836,0.022108410156249998,0.279403813
1.292,-0.002087463,0.011451222,0.08374993,0.022108209,0.279405313
1.296,-0.002086557,0.011450719,0.083749328,0.022108912,0.279405969
1.3,-0.002087362,0.011452463,0.083749492,0.022110957,0.279404813
1.304,-0.002084982,0.011453066,0.083748727,0.022109281249999998,0.279406813
1.308,-0.002089374,0.011453736,0.083749898,0.022109248,0.27940349999999997
1.312,-0.002086557,0.011452798,0.083748992,0.022108543,0.279405969
1.316,-0.002084043,0.011451289,0.083748055,0.022107035,0.279407844
1.32,-0.002082434,0.011450115234374999,0.083746242,0.022106029,0.279409156
1.324,-0.002087496,0.011450115234374999,0.083747383,0.022109014,0.27940506249999997
1.328,-0.002088469,0.011450451171874999,0.083748422,0.022110287109374998,0.2794045
1.332,-0.002087094,0.011450149,0.083748086,0.022110555,0.279405594
1.336,-0.002082937,0.01144854,0.083745945,0.022109516,0.279408156
1.34,-0.002082199,0.011447298828124999,0.083745141,0.022109749999999997,0.27940818749999996
1.344,-0.002081662,0.011447097656249999,0.083744367,0.022108912,0.279409188
1.348,-0.002083037,0.011447366210937499,0.083744234,0.02210908,0.27940899999999996
1.352,-0.002083037,0.011447333,0.083744336,0.02210908,0.279409094
1.356,-0.002082366,0.011446562,0.083743391,0.022109281249999998,0.279409469
1.36,-0.002086725,0.011445757,0.083744867,0.022110722656249998,0.279405906
1.364,-0.002084546,0.011445623046874999,0.083744469,0.022110287109374998,0.279407719
1.368,-0.002083875,0.011445791,0.083744836,0.022109482,0.279409281
1.372,-0.002082031,0.011445221,0.083743625,0.022106699218749998,0.279410938
1.376,-0.002082937,0.011444584,0.083742188,0.022105861,0.27941024999999997
1.38,-0.002085719,0.011445354492187499,0.083743727,0.022108209,0.279407344
1.384,-0.002083808,0.011444818,0.083744063,0.022108410156249998,0.279409406
1.388,-0.002082702,0.011442605468749999,0.083743563,0.022108242,0.2794105
1.392,-0.002083305,0.011440057617187499,0.083742727,0.022109248,0.27941018749999996
1.396,-0.002082232,0.011439588,0.083742156,0.022109248,0.27941078124999996
1.4,-0.002078678,0.011438045898437499,0.083741047,0.022109314453124997,0.279412594
1.404,-0.002079584,0.011438313,0.083741281,0.022110221,0.279412125
1.408,-0.002083138,0.011439721679687499,0.083742789,0.022109951,0.27941
1.412,-0.002082366,0.011440996,0.083743125,0.022109584,0.279410531
1.416,-0.002081729,0.011440259,0.083742188,0.022109146484374998,0.279411281
1.42,-0.002083473,0.011440224609374999,0.083742352,0.022109885,0.27940943749999997
1.424,-0.002080455,0.011438984374999999,0.083740945,0.02210908,0.27941121874999997
1.428,-0.002079617,0.011438045898437499,0.083740547,0.022108477,0.279412844
1.432,-0.002080187,0.011437241,0.083740781,0.022109146484374998,0.27941278124999996
1.436,-0.002078611,0.011437576,0.083739172,0.022107236328124998,0.279413563
1.44,-0.00207784,0.011436738281249999,0.083737391,0.022106498,0.27941374999999996
1.444,-0.002078913,0.011435463867187499,0.083736953,0.022108477,0.279412844
1.448,-0.002080489,0.011434392,0.083737859,0.022109851562499998,0.279411875
1.452,-0.002081428,0.011434492187499999,0.083738531,0.022109951,0.27941143749999997
1.456,-0.002080891,0.011434156249999999,0.083737898,0.022109584,0.27941159374999996
1.46,-0.002083104,0.011434559,0.083737563,0.022110119,0.279409344
1.464,-0.002082601,0.011433821,0.083737125,0.022108578,0.279409969
1.468,-0.002080992,0.011432714843749999,0.083736523,0.022107537,0.27941159374999996
1.472,-0.00207841,0.011430971679687499,0.083734508,0.022106063,0.27941321874999997
1.476,-0.002077136,0.011430333984374999,0.083733398,0.022104621,0.27941325
1.48,-0.002074387,0.011429262,0.083731625,0.022103549,0.279415281
1.484,-0.002081964,0.011430836914062499,0.083734172,0.022108041,0.279409688
1.488,-0.00207945,0.011430535,0.083733641,0.022107134765624998,0.27941218749999996
1.492,-0.002076767,0.011429328124999999,0.083731891,0.022104486,0.279414125
1.496,-0.002076834,0.011428322265624999,0.083730891,0.022104387,0.279413656
1.5,-0.002078276,0.011428389648437499,0.083731391,0.022106531,0.279411844
1.504,-0.002077438,0.011427652343749999,0.08373025,0.022106029,0.279412875
1.508,-0.002078243,0.011427351,0.083730148,0.022105660156249998,0.279412719
1.512,-0.002082098,0.011427618,0.0837325,0.022106934,0.27940965624999997
1.516,-0.002079651,0.011427082031249999,0.083732164,0.022106128906249998,0.279411313
1.52,-0.002077002,0.011427584960937499,0.083730953,0.022103984,0.27941278124999996
1.524,-0.002075326,0.011426008789062499,0.083729313,0.022103146,0.279414031
1.528,-0.002075761,0.011425505859374999,0.083728875,0.022102609,0.279414438
1.532,-0.0020767,0.011424333007812499,0.083729211,0.022102341796874998,0.27941396874999996
1.536,-0.002073884,0.011424400390624999,0.083728945,0.022101904,0.279415875
1.54,-0.002076432,0.011425002929687499,0.083729984,0.022102811,0.279413656
1.544,-0.002077673,0.011425640624999999,0.083730555,0.02210452,0.27941218749999996
1.548,-0.002076969,0.01142497,0.08372975,0.022104117187499998,0.27941321874999997
1.552,-0.002078276,0.011425439,0.083730922,0.022104117187499998,0.279412594
1.556,-0.002078746,0.011426411,0.083731055,0.022103347656249998,0.279411844
1.56,-0.002077505,0.011423662,0.083728906,0.022102642578124998,0.27941256249999996
1.564,-0.002075996,0.011421952,0.083727938,0.022103549,0.279413625
1.568,-0.002075594,0.011421013671874999,0.083727398,0.022104051,0.279414063
1.572,-0.002076264,0.011421818359374999,0.0837275,0.022103715,0.279413906
1.576,-0.002078611,0.011422221,0.083728242,0.022105291,0.279411563
1.58,-0.00207841,0.011421617,0.083728242,0.0221066,0.27941159374999996
1.584,-0.002077438,0.011422656,0.083727836,0.022106297,0.279412594
1.588,-0.002077572,0.011423294,0.08372857,0.022106465,0.27941321874999997
1.592,-0.002077639,0.011421885742187499,0.083727938,0.022106063,0.279413281
1.596,-0.002075527,0.011420745117187499,0.083726492,0.022105224609374998,0.279414469
1.6,-0.002078075,0.011420377,0.083726594,0.022106398437499997,0.27941262499999997
1.604,-0.002078343,0.011421013671874999,0.083726359,0.022105861,0.279412219
1.608,-0.002076063,0.011419304,0.083724852,0.022104555,0.279414281
1.612,-0.002075125,0.011417963,0.083723914,0.022103984,0.279415063
1.616,-0.002072308,0.011415851,0.083722336,0.022103212890624998,0.279417313
1.62,-0.002070129,0.011415179687499999,0.083720258,0.022100765624999998,0.279419031
1.624,-0.002074923,0.011415783,0.083721664,0.022103111328124998,0.279415438
1.628,-0.002075326,0.011416789,0.083722508,0.022103347656249998,0.27941525
1.632,-0.002074756,0.011416957,0.083722141,0.022103279,0.27941596874999997
1.636,-0.002073046,0.011417828,0.083721469,0.022102375,0.279416906
1.64,-0.002074789,0.01141746,0.083722102,0.022103045,0.279415406
1.644,-0.002074119,0.011417023,0.083722438,0.022102979,0.279416063
1.648,-0.002075393,0.011416286,0.083723141,0.022103381,0.27941581249999997
1.652,-0.002079081,0.011417594,0.083726297,0.022106732,0.2794125
1.656,-0.002074152,0.011418331,0.083725656,0.022106197,0.279415719
1.66,-0.002072744,0.01141813,0.083724484,0.022104789062499998,0.279416906
1.664,-0.002072878,0.011419907,0.083724281,0.022104353515624998,0.279416531
1.668,-0.002071805,0.011420309570312499,0.083723914,0.022101838,0.279417656
1.672,-0.002069961,0.011419706,0.083722672,0.022099726562499998,0.279419094
1.676,-0.002071235,0.011419236328124999,0.083722945,0.022101066406249998,0.279417688
1.68,-0.002070732,0.011417963,0.083722805,0.022102174,0.2794185
1.684,-0.002069827,0.011417694335937499,0.083722469,0.022102039,0.279420094
1.688,-0.002072677,0.011417393,0.083724016,0.022101838,0.279418375
1.692,-0.002073314,0.011416185546874999,0.083724789,0.022102039,0.279418313
1.696,-0.002071369,0.011415348,0.083722945,0.022100832,0.279419563
1.7,-0.002067749,0.01141471,0.083720664,0.022099525,0.279422094
1.704,-0.002064563,0.011414241210937499,0.083718547,0.022097412,0.27942475
1.708,-0.002069291,0.011413436523437499,0.083720094,0.022099424,0.27942190624999996
1.712,-0.002071705,0.011412498046874999,0.0837215,0.022101335937499998,0.27941974999999997
1.716,-0.002071872,0.011412732,0.08372143,0.022102543,0.27941915624999997
1.72,-0.002069626,0.011413503906249999,0.083720531,0.022102709,0.279421125
1.724,-0.002068184,0.011413102,0.083720664,0.022102675781249997,0.279422688
1.728,-0.002071705,0.011411659,0.083722203,0.022104555,0.279420219
1.732,-0.002071034,0.011411224,0.083722039,0.02210452,0.27942131249999996
1.736,-0.002069056,0.011411593,0.083721367,0.022103514,0.27942275
1.74,-0.002069056,0.011413102,0.083721336,0.022104889,0.279422406
1.744,-0.002067681,0.011413000976562499,0.083721398,0.02210452,0.27942325
1.748,-0.002068754,0.011412599,0.083722,0.022103615,0.279422906
1.752,-0.002069056,0.0114129,0.083722906,0.022104018,0.279423031
1.756,-0.002070866,0.011411492187499999,0.083722945,0.022105660156249998,0.279421063
1.76,-0.002068285,0.011409178710937499,0.083721195,0.022104486,0.279422406
1.764,-0.002067044,0.011408541015624999,0.083719586,0.022103012,0.279423438
1.768,-0.002064698,0.011407602539062499,0.083719055,0.022101234,0.279425844
1.772,-0.002066676,0.01140663,0.083719188,0.022101939,0.279424469
1.776,-0.002066374,0.011408038085937499,0.083719352,0.022102777343749998,0.279423938
1.78,-0.002062887,0.011408642,0.083718383,0.022102777343749998,0.279425938
1.784,-0.002063423,0.011408072,0.083718781,0.022104387,0.279425719
1.788,-0.002062552,0.011406529296874999,0.083718047,0.02210385,0.279426344
1.792,-0.002063759,0.011405523437499999,0.083717883,0.022103447,0.279425875
1.796,-0.002065703,0.011405558,0.083718383,0.022103883,0.279423781
1.8,-0.00206349,0.011405859374999999,0.083716875,0.022101805,0.279425031
1.804,-0.002060909,0.011405256,0.083715797,0.022100330078124997,0.279427375
1.808,-0.00206292,0.011404517578124999,0.083717141,0.022101738281249998,0.279426094
1.812,-0.002061512,0.011404215820312499,0.08371875,0.022101436,0.27942687499999996
1.816,-0.002059937,0.011403747,0.083718984,0.022100832,0.279427594
1.82,-0.002055746,0.011403545898437499,0.083717211,0.022098318,0.279430906
1.824,-0.002062417,0.011403445,0.083717945,0.022100396,0.279425969
1.828,-0.002063323,0.011404686,0.083718547,0.022100531,0.279426031
1.832,-0.002063926,0.011404618,0.083719219,0.022101604,0.279426219
1.836,-0.002060674,0.011403513,0.083718883,0.022102777343749998,0.27942865624999996
1.84,-0.00205883,0.011401668,0.08371825,0.022103715,0.279429563
1.844,-0.002057657,0.011399992,0.083717313,0.022102844,0.279430188
1.848,-0.002056852,0.011399220703124999,0.083716977,0.022100496093749998,0.27943124999999996
1.852,-0.002055008,0.011398785156249999,0.083716906,0.022099726562499998,0.279432844
1.856,-0.002058897,0.011398986,0.083718047,0.022101,0.279430156
1.86,-0.0020593,0.011400528320312499,0.083717977,0.022101703,0.279430125
1.864,-0.002058093,0.011400226562499999,0.083716469,0.022100129,0.279431
1.868,-0.002055477,0.011399489,0.083715469,0.022097982,0.27943340624999996
1.872,-0.002051789,0.011398818,0.083713086,0.022094295,0.279436625
1.876,-0.002057556,0.011397511,0.083714188,0.022097682,0.279432156
1.88,-0.002059065,0.011398383,0.08371493,0.022100832,0.279430813
1.884,-0.002057388,0.011399321,0.083715062,0.022100799,0.279432563
1.888,-0.002057556,0.01139959,0.083716203,0.022101234,0.279432469
1.892,-0.002056986,0.011400025390624999,0.083716672,0.022100865,0.279433
1.896,-0.002054874,0.011399354,0.083714961,0.022099994,0.2794345
1.9,-0.002052192,0.011398014,0.083712813,0.022099525,0.27943625
1.904,-0.002055846,0.011397611,0.083714055,0.022101771484374998,0.279433531
1.908,-0.002054572,0.011396538,0.083713555,0.022100330078124997,0.279434688
1.912,-0.002054639,0.011395834,0.083713719,0.022098385,0.27943465624999997
1.916,-0.002052695,0.011394728,0.083713617,0.022099324218749997,0.279435875
1.92,-0.002052359,0.011395197265624999,0.083714125,0.022101234,0.279436094
1.924,-0.002050951,0.011394158,0.083712953,0.022100630859374998,0.27943784374999997
1.928,-0.002053097,0.011393052,0.083713383,0.022101,0.279436031
1.932,-0.002050783,0.011391576171874999,0.083712914,0.022099726562499998,0.279437594
1.936,-0.002050783,0.011391174,0.083711945,0.022099859,0.279437594
1.94,-0.00205142,0.011391442,0.083711945,0.022102039,0.279436469
1.944,-0.002050549,0.011392516,0.083713016,0.022102375,0.279436781
1.948,-0.002050079,0.011393118164062499,0.083714188,0.022103111328124998,0.279437
1.952,-0.002046593,0.01139161,0.08371332,0.022101335937499998,0.279439875
1.956,-0.002050348,0.011391543,0.08371493,0.022102979,0.279436531
1.96,-0.002049007,0.011392817,0.083714758,0.022104152,0.27943703124999997
1.964,-0.002048001,0.011393219,0.083714562,0.02210499,0.2794385
1.968,-0.002045788,0.011391543,0.083714156,0.022102811,0.27944081249999997
1.972,-0.002042301,0.011390202148437499,0.083712109,0.02209882,0.27944399999999997
1.976,-0.002045017,0.011389229,0.08371218,0.022101,0.27944140624999997
1.98,-0.002042402,0.011389498,0.083712211,0.022100865,0.279442469
1.984,-0.002043877,0.011390504,0.083713523,0.022101939,0.2794415
1.988,-0.002045888,0.011392951171874999,0.083714961,0.022102777343749998,0.279440563
1.992,-0.002047498,0.011393454101562499,0.08371657,0.022103582,0.27943918749999996
1.996,-0.00204334,0.01139161,0.083715664,0.022101973,0.279442094
2,-0.002037909,0.011390537,0.083713953,0.022099793,0.279446656
2.004,-0.00204153,0.011390973,0.083715266,0.022101604,0.279444438
2.008,-0.002041698,0.011390738,0.08371657,0.022101703,0.279444813
2.012,-0.00204096,0.011390369140624999,0.083717039,0.022101033,0.27944575
2.016,-0.002041027,0.011388894531249999,0.083716508,0.022101135,0.279445969
2.02,-0.002040356,0.011389431,0.083716742,0.022102105468749998,0.27944631249999996
2.024,-0.002039183,0.011388123046874999,0.083715734,0.022101501953124998,0.27944771874999996
2.028,-0.002043407,0.01138752,0.083717313,0.022104756,0.279444906
2.032,-0.002042905,0.011387419,0.083717508,0.022104555,0.279445406
2.036,-0.002043307,0.01138591,0.083717813,0.022104789062499998,0.279444781
2.04,-0.002040021,0.011387117,0.083716641,0.022103783203124998,0.279447094
2.044,-0.002039552,0.011386882812499999,0.083716539,0.02210452,0.279447375
2.048,-0.002037339,0.011386078124999999,0.083716602,0.022104621,0.279449438
2.052,-0.002035461,0.011386179,0.083715734,0.022103111328124998,0.279451594
2.056,-0.002039317,0.011389699218749999,0.083717039,0.022104555,0.27944775
2.06,-0.002034523,0.011388827148437499,0.083715398,0.022103279,0.279450781
2.064,-0.002031673,0.011386514,0.083713422,0.022100195312499998,0.279453906
2.068,-0.002033584,0.011386346,0.08371332,0.022097445,0.279452969
2.072,-0.002031907,0.011385575195312499,0.083711609,0.022095166,0.279454656
2.076,-0.002034523,0.011385742187499999,0.083712109,0.022096574218749998,0.279452625
2.08,-0.00203469,0.011387888671874999,0.083712984,0.022098418,0.279451906
2.084,-0.002032176,0.011388458,0.083712516,0.022098418,0.27945365624999996
2.088,-0.0020306,0.011387854,0.083710938,0.022097042968749998,0.279455094
2.092,-0.002029762,0.011387285,0.083710102,0.022097412,0.279456438
2.096,-0.002027482,0.011387250976562499,0.083709266,0.022096273437499998,0.279458125
2.1,-0.002024196,0.011384871,0.083708492,0.022095132812499998,0.279460563
2.104,-0.002028152,0.011385407,0.083710836,0.022097346,0.279457594
2.108,-0.002024733,0.011385608,0.083711375,0.022096676,0.27945975
2.112,-0.002023626,0.011385642,0.083710703,0.022095971,0.27946075
2.116,-0.002023727,0.011387753906249999,0.083711406,0.022096742,0.27945965624999997
2.12,-0.002023291,0.011388458,0.083710969,0.022096439,0.27945965624999997
2.124,-0.002021782,0.011387385742187499,0.083711344,0.022095635,0.27946106249999997
2.128,-0.002021782,0.011386983,0.083711477,0.022095904,0.279461969
2.132,-0.002022251,0.011386815429687499,0.083711773,0.022096475,0.279461906
2.136,-0.002023928,0.011387218,0.083712148,0.02209691,0.27946040624999996
2.14,-0.002023458,0.011387753906249999,0.083713188,0.022097814,0.279460219
2.144,-0.002020072,0.011385575195312499,0.083712281,0.022097646,0.279463563
2.148,-0.002023526,0.011384435,0.083713688,0.022099156249999998,0.279461313
2.152,-0.002019804,0.011383396,0.083713352,0.022098787,0.279464813
2.156,-0.002022017,0.011381519,0.083714422,0.022101771484374998,0.2794625
2.16,-0.00201967,0.011381217,0.083713789,0.022100934,0.279463906
2.164,-0.002019301,0.011382088,0.083713484,0.022100027,0.27946462499999997
2.168,-0.002017256,0.011381249999999999,0.083712445,0.022097916,0.279467188
2.172,-0.002018496,0.011380076,0.083712344,0.022096641,0.279467094
2.176,-0.002021078,0.011380747070312499,0.083713453,0.022098385,0.279464469
2.18,-0.002020139,0.011380579,0.083712109,0.022098652,0.279465156
2.184,-0.00201967,0.011379875,0.083711305,0.022099291015624998,0.27946565624999997
2.188,-0.002017155,0.011379205,0.083711141,0.022099256,0.2794675
2.192,-0.002014641,0.011380378,0.083711578,0.022098922,0.279469344
2.196,-0.002011389,0.011382223,0.083710305,0.02209825,0.279471875
2.2,-0.002016384,0.011383730468749999,0.083712953,0.022101939,0.279467781
2.204,-0.002012696,0.011382724609374999,0.083713117,0.022102341796874998,0.279470469
2.208,-0.002010282,0.011380613,0.083712344,0.02210043,0.279472875
2.212,-0.002012059,0.01137954,0.083712008,0.022100229,0.279471938
2.216,-0.002011724,0.011379406,0.083711711,0.022101402,0.279471406
2.22,-0.002008036,0.011378567,0.083710398,0.022101168,0.2794745
2.224,-0.002012361,0.01137907,0.083711844,0.022104186,0.279471063
2.228,-0.002013836,0.011380579,0.083712781,0.022103883,0.279470063
2.232,-0.002009645,0.011379808593749999,0.083711445,0.022101871,0.279473281
2.236,-0.002006661,0.011379406,0.083710602,0.022100330078124997,0.279475469
2.24,-0.002005856,0.011380445,0.083710031,0.022098720703124998,0.279475813
2.244,-0.002006158,0.011380513,0.0837095,0.022098285156249998,0.27947553124999996
2.248,-0.002004951,0.011379875,0.083709867,0.02209909,0.279477281
2.252,-0.0020076,0.011380144,0.083711945,0.022101669921874997,0.279475656
2.256,-0.002005387,0.011380646,0.083711039,0.022101904,0.279478031
2.26,-0.002005018,0.011380378,0.083710234,0.022102979,0.279478406
2.264,-0.002003476,0.011379339,0.083709797,0.022102307,0.27948
2.268,-0.002002906,0.011378299804687499,0.083711203,0.022101369,0.279480969
2.272,-0.001998615,0.011377226562499999,0.083710938,0.022100330078124997,0.279484375
2.276,-0.002001632,0.0113784,0.083712516,0.022101805,0.279481969
2.28,-0.002005789,0.011380244140624999,0.08371493,0.022105594,0.279477375
2.284,-0.001999855,0.011380176757812499,0.083713188,0.022104051,0.27948168749999996
2.288,-0.001998514,0.011379641,0.083712383,0.022103012,0.279483063
2.292,-0.001999218,0.01137897,0.083714055,0.022105660156249998,0.279482438
2.296,-0.001997307,0.011378299804687499,0.083714125,0.02210633,0.279483563
2.3,-0.001995631,0.011378869,0.083715031,0.022107939,0.279484625
2.304,-0.001998547,0.011379472656249999,0.083717141,0.02210965,0.27948271874999997
2.308,-0.00199838,0.011378937,0.083717406,0.02210965,0.279482938
2.312,-0.001998078,0.011378869,0.083717078,0.022110254,0.279483813
2.316,-0.001996938,0.011379406,0.083717242,0.022110789,0.279484313
2.32,-0.001995631,0.011379975585937499,0.083716203,0.022110924,0.279484969
2.324,-0.00199144,0.011379472656249999,0.08371493,0.022109047,0.2794885
2.328,-0.001996368,0.011377461,0.083716234,0.02211183,0.279485375
2.332,-0.001995463,0.01137659,0.083716672,0.022113203124999998,0.27948546874999997
2.336,-0.001992278,0.011377461,0.083715133,0.022112902343749997,0.279487938
2.34,-0.001992982,0.011377863,0.083715133,0.022113807,0.279487406
2.344,-0.001991272,0.011377528,0.083714727,0.022114713,0.27948887499999997
2.348,-0.001991373,0.01137736,0.083714523,0.022114914062499998,0.27948924999999997
2.352,-0.001992378,0.011376188,0.083715867,0.022115518,0.279488563
2.356,-0.0019903,0.011375617,0.083715664,0.02211602,0.279489969
2.36,-0.001990099,0.011375851562499999,0.083714695,0.022115349609374998,0.27949006249999997
2.364,-0.001991037,0.011376221,0.083714898,0.022117262,0.279489344
2.368,-0.00199325,0.011377696,0.083716203,0.022118635,0.279487938
2.372,-0.001990937,0.011378667968749999,0.083715563,0.022116791015624998,0.279489344
2.376,-0.001986545,0.011377964,0.083713523,0.022115686,0.279492688
2.38,-0.001988087,0.011378031,0.083713586,0.022117830078124998,0.279491063
2.384,-0.001986578,0.0113784,0.083713953,0.022119307,0.279492531
2.388,-0.001986075,0.011376656249999999,0.083713555,0.022117931640624998,0.27949375
2.392,-0.001985673,0.011374175781249999,0.083711445,0.022115785156249998,0.27949384374999997
2.396,-0.001984298,0.01137394,0.083711344,0.02211602,0.279494313
2.4,-0.001987081,0.011375047,0.083713289,0.022118367187499998,0.279491906
2.404,-0.001984399,0.011377226562499999,0.08371382,0.0221181,0.279493688
2.408,-0.001981448,0.011376791,0.083713555,0.022117697,0.27949621874999997
2.412,-0.001981616,0.011375081,0.083713953,0.02211877,0.279496031
2.416,-0.00198061,0.011374511,0.083714188,0.022119004,0.279496719
2.42,-0.001981214,0.011374845703124999,0.083714289,0.022119809,0.279495875
2.424,-0.001977794,0.011375684570312499,0.083713188,0.022118232,0.27949896874999997
2.428,-0.001978196,0.011376623,0.083713523,0.022117664,0.279499656
2.432,-0.00198004,0.011376623,0.083714664,0.022118970703124997,0.279497906
2.436,-0.001976185,0.011375383,0.083712047,0.022116523,0.279500688
2.44,-0.001973703,0.011374008,0.083709898,0.022114880859374998,0.279502813
2.444,-0.001974508,0.011373438,0.083710164,0.022115752,0.279502656
2.448,-0.001975514,0.011372466,0.083711242,0.022116791015624998,0.27950296874999997
2.452,-0.001975682,0.011373472,0.083711945,0.022116992,0.279502438
2.456,-0.001972329,0.011372801,0.083710773,0.022116422,0.27950431249999996
2.46,-0.001968071,0.011371829,0.083707688,0.02211498,0.27950775
2.464,-0.001976755,0.011373975,0.083710438,0.022119307,0.27950118749999997
2.468,-0.001974575,0.011375282,0.083711711,0.022119943359374998,0.279503438
2.472,-0.001972094,0.011375181640624999,0.08371168,0.022118736,0.279505656
2.476,-0.001968205,0.011372868,0.083709898,0.022117361328124998,0.279508344
2.48,-0.00196968,0.011372901367187499,0.083709594,0.022119072265624998,0.27950734374999997
2.484,-0.001973838,0.011374678710937499,0.083711609,0.022121184,0.279503156
2.488,-0.001970485,0.011374242,0.083711539,0.022120546874999997,0.27950549999999996
2.492,-0.001969647,0.011372331054687499,0.083711445,0.022119877,0.27950668749999996
2.496,-0.001970016,0.011370923828124999,0.083711203,0.022120211,0.279505688
2.5,-0.001969345,0.011371929,0.083711539,0.022120211,0.279506219
2.504,-0.001970753,0.011372029296874999,0.083712047,0.022121484,0.279505156
2.508,-0.001969948,0.011373169921874999,0.083712516,0.022121586,0.27950609374999996
2.512,-0.001968272,0.011372969,0.083712883,0.022120748,0.27950775
2.516,-0.001966696,0.011371226,0.083710031,0.022117664,0.279509781
2.52,-0.001969446,0.011371996,0.08370943,0.022117529,0.279507156
2.524,-0.001964383,0.011371090820312499,0.083707219,0.022115818359374997,0.279511094
2.528,-0.001968306,0.011370688,0.083708156,0.022116088,0.27950890624999997
2.532,-0.001967534,0.011370521,0.083708289,0.022114746,0.279509031
2.536,-0.0019673,0.011370420898437499,0.08370782,0.022114244,0.27950925
2.54,-0.001965757,0.011369516,0.083707484,0.022115115,0.279510281
2.544,-0.001963511,0.011369013,0.083706109,0.02211374,0.279512625
2.548,-0.001966026,0.011370521,0.083707516,0.022114880859374998,0.279511094
2.552,-0.001964115,0.011370387,0.083707852,0.022114746,0.279512813
2.556,-0.001961432,0.011370084960937499,0.083706648,0.022114076,0.279514781
2.56,-0.001961533,0.011369516,0.083705508,0.022114545,0.279515313
2.564,-0.001965355,0.011369917968749999,0.083706914,0.022117295,0.279511688
2.568,-0.001962002,0.011369717,0.083705609,0.02211525,0.279514531
2.572,-0.001963545,0.01136804,0.083705141,0.022114746,0.279513906
2.576,-0.00196797,0.011367403320312499,0.083706984,0.022116791015624998,0.279510156
2.58,-0.001969244,0.011369516,0.083709164,0.022118568,0.27950825
2.584,-0.001963746,0.011368744,0.083708359,0.022117697,0.279512
2.588,-0.001961466,0.011367067,0.083707352,0.022115383,0.279514219
2.592,-0.001962338,0.011366297,0.083707148,0.02211307,0.27951387499999997
2.596,-0.001964182,0.011365224,0.083706883,0.022113572,0.279512656
2.6,-0.001963846,0.011366262695312499,0.083707148,0.02211602,0.279512781
2.604,-0.001962706,0.011365895,0.083707086,0.022116859,0.279514188
2.608,-0.001961097,0.011364519531249999,0.083705906,0.022115148,0.279515719
2.612,-0.001964685,0.011364386,0.083707188,0.022116355468749998,0.279513594
2.616,-0.001966093,0.011364318,0.083708125,0.022117898,0.27951209374999997
2.62,-0.001963243,0.011363078,0.083706914,0.022117262,0.27951424999999996
2.624,-0.001961198,0.011363614,0.083706414,0.022115854,0.279515625
2.628,-0.001962505,0.011362575,0.083706781,0.022115082,0.279515188
2.632,-0.001963276,0.01136291,0.083707016,0.022116388671874997,0.279514438
2.636,-0.001963243,0.011363715,0.083707688,0.022117796874999998,0.279514375
2.64,-0.001963109,0.011364318,0.083707086,0.022117193,0.279514344
2.644,-0.001959756,0.011363547,0.083705711,0.022116355468749998,0.27951675
2.648,-0.001959723,0.011361904,0.083705844,0.022115115,0.2795175
2.652,-0.001962539,0.011363044,0.083707688,0.022115953,0.279514813
2.656,-0.001957677,0.011362943359374999,0.083706477,0.022114746,0.279517563
2.66,-0.001959287,0.011362608,0.083706812,0.022115686,0.279516156
2.664,-0.001958516,0.011362139,0.08370732,0.022115854,0.27951668749999997
2.668,-0.001957677,0.011361368,0.08370782,0.022115316,0.279517906
2.672,-0.001958113,0.011360798,0.083708023,0.022114578,0.279517906
2.676,-0.001956001,0.011358786,0.083705742,0.022112734,0.27951981249999996
2.68,-0.001955263,0.011357915,0.083704836,0.0221126,0.27952040624999996
2.684,-0.001956001,0.01135872,0.083705406,0.022113104,0.279519094
2.688,-0.001955297,0.011358451171874999,0.083705711,0.022112767578124998,0.27952024999999997
2.692,-0.0019559,0.011358082,0.083706008,0.022112969,0.27952018749999996
2.696,-0.001957007,0.011358518554687499,0.083706984,0.022112969,0.27951899999999996
2.7,-0.001953822,0.011358351,0.083706078,0.022112869140624998,0.27952075
2.704,-0.001951911,0.011356774,0.083705742,0.022113404,0.279522281
2.708,-0.001950804,0.011356104,0.083705336,0.022113137,0.279523563
2.712,-0.001953352,0.011358283,0.083705906,0.022113404,0.27952224999999997
2.716,-0.001952849,0.011359959960937499,0.083705977,0.022113439453124998,0.279522094
2.72,-0.001951508,0.011359289,0.083705539,0.022112064,0.279523688
2.724,-0.001953118,0.01135778,0.083706914,0.022113439453124998,0.279522313
2.728,-0.001954895,0.011357009765624999,0.083707922,0.022114947,0.27952125
2.732,-0.001954693,0.011357445312499999,0.083708695,0.022115349609374998,0.27952181249999997
2.736,-0.001953956,0.011357177,0.083708859,0.022115686,0.279522531
2.74,-0.001951341,0.011355735,0.08370668,0.022114008,0.2795245
2.744,-0.001950033,0.01135607,0.083705336,0.022112332031249998,0.279525688
2.748,-0.001949932,0.011356137695312499,0.083704133,0.022110254,0.27952693749999996
2.752,-0.001950502,0.011356104,0.083703328,0.022109215,0.279527344
2.756,-0.001947485,0.011355534,0.083701516,0.022105895,0.279530031
2.76,-0.001949765,0.011354395,0.083702625,0.022107974609374997,0.27952834374999996
2.764,-0.001948558,0.011354227,0.083704164,0.022109281249999998,0.279528375
2.768,-0.001944534,0.011352885742187499,0.083702453,0.022107873,0.279532313
2.772,-0.001947854,0.011352986,0.083703398,0.022108779,0.279529719
2.776,-0.001945473,0.011352147,0.083702492,0.022108779,0.279530813
2.78,-0.001946412,0.011351611328124999,0.08370182,0.022109416015624998,0.279529938
2.784,-0.001948759,0.011354227,0.083703328,0.022111158,0.279527625
2.788,-0.001945775,0.0113554,0.083702961,0.02210965,0.279530406
2.792,-0.001946211,0.011354125976562499,0.083701617,0.022109281249999998,0.279530281
2.796,-0.001946479,0.01135483,0.083701117,0.022109549,0.279529469
2.8,-0.001945339,0.011354729,0.083701555,0.022110421874999998,0.279530156
2.804,-0.00194782,0.01135483,0.083703164,0.022112869140624998,0.279528375
2.808,-0.001946747,0.011353757,0.083703227,0.022113572,0.279529625
2.812,-0.001947887,0.011350874023437499,0.083701883,0.022113371,0.279529406
2.816,-0.001948357,0.011351478,0.083701586,0.02211374,0.279528219
2.82,-0.00194715,0.011352315429687499,0.083700883,0.02211374,0.279528531
2.824,-0.001945004,0.011351812499999999,0.083699844,0.022112332031249998,0.27953012499999996
2.828,-0.001944736,0.011351745,0.083699805,0.022110521,0.279530375
2.832,-0.00194202,0.011351611328124999,0.083698867,0.022109416015624998,0.279533063
2.836,-0.001945104,0.011351812499999999,0.083700039,0.022112902343749997,0.279530313
2.84,-0.001943126,0.01135198,0.083699703,0.022112936,0.279531656
2.844,-0.001942422,0.011351041015624999,0.083699375,0.022112635,0.27953249999999996
2.848,-0.001940578,0.011349633789062499,0.083698,0.022111359,0.279534313
2.852,-0.0019385,0.011348158,0.083696422,0.022110053,0.279536406
2.856,-0.001940075,0.011348226,0.083696391,0.022111059,0.27953515624999997
2.86,-0.001937762,0.011349297851562499,0.083695445,0.022111059,0.279536313
2.864,-0.001934309,0.011348896,0.083693234,0.022109314453124997,0.279539375
2.868,-0.001937896,0.011349935546874999,0.083694344,0.022108543,0.279537344
2.872,-0.001939807,0.011350136718749999,0.083695414,0.022108812499999998,0.279536156
2.876,-0.001936957,0.01135084,0.083695414,0.022108410156249998,0.279538031
2.88,-0.001934342,0.011351376953124999,0.083694945,0.022108376953124998,0.27953968749999997
2.884,-0.001937292,0.011350539,0.083695852,0.022110656,0.279537375
2.888,-0.001938164,0.011351578,0.083697023,0.02211183,0.27953693749999997
2.892,-0.001935448,0.011352382812499999,0.083696352,0.022110924,0.2795395
2.896,-0.00193394,0.011350572,0.083695047,0.022110086,0.279540563
2.9,-0.001933571,0.011350136718749999,0.083694008,0.022109549,0.27954025
2.904,-0.001933571,0.011349433,0.083693836,0.022109047,0.279540625
2.908,-0.001935113,0.011350505,0.083694813,0.022108209,0.27954025
2.912,-0.001931559,0.011350338,0.083694578,0.022106465,0.279543438
2.916,-0.001933604,0.011350203,0.083694844,0.022108209,0.279542
2.92,-0.00193679,0.011352986,0.083695719,0.022109584,0.279539156
2.924,-0.001934946,0.011353891601562499,0.083695617,0.022108879,0.279540563
2.928,-0.001932699,0.011353087,0.083695586,0.022108543,0.27954275
2.932,-0.001932666,0.011352215,0.083695078,0.022108578,0.279542531
2.936,-0.001931895,0.011351276,0.083694844,0.022109416015624998,0.27954275
2.94,-0.00192995,0.011350806640624999,0.083694844,0.022109047,0.279544
2.944,-0.001927134,0.011349097,0.083693367,0.022107404296874997,0.27954665624999997
2.948,-0.001928039,0.011348359374999999,0.083692898,0.022105561,0.279546563
2.952,-0.001927435,0.011347622070312499,0.083692227,0.022104218749999998,0.27954681249999996
2.956,-0.001926731,0.011348762,0.083692328,0.022105693359374998,0.279547063
2.96,-0.001926396,0.011348896,0.083690992,0.022106263671874998,0.27954775
2.964,-0.001923379,0.011347051757812499,0.083689047,0.022105123046874998,0.27955037499999996
2.968,-0.00192016,0.01134551,0.083686461,0.022102039,0.27955296874999996
2.972,-0.001923043,0.011346548828124999,0.083686867,0.022103951,0.27955125
2.976,-0.001925658,0.011346817382812499,0.083688641,0.022106633,0.27954875
2.98,-0.001926061,0.011347019,0.083689648,0.022108980468749997,0.279547875
2.984,-0.001921501,0.011346381,0.083688203,0.022107134765624998,0.279551813
2.988,-0.001925055,0.011344906,0.083688844,0.02210851,0.279549938
2.992,-0.001924284,0.011345107,0.083688773,0.022107471,0.279550344
2.996,-0.001923881,0.011344302734374999,0.083687937,0.022106833984374998,0.279550531
3,-0.001924016,0.011344972656249999,0.083687539,0.022106096,0.27955037499999996
3.004,-0.00192254,0.011344604,0.083687367,0.022106465,0.27955118749999996
3.008,-0.001921501,0.011343463867187499,0.083686227,0.022105191,0.279552469
3.012,-0.001919791,0.011343766,0.083685461,0.022104353515624998,0.279553875
3.016,-0.00192083,0.011343699,0.083685594,0.022105895,0.279553156
3.02,-0.001919523,0.011344504,0.083685523,0.022105794921874998,0.279553719
3.024,-0.001919255,0.011345811523437499,0.083686531,0.022106699218749998,0.279554188
3.028,-0.001918785,0.011345073,0.083687805,0.022107639,0.279554688
3.032,-0.001917344,0.011344202,0.083686562,0.022105727,0.279555875
3.036,-0.001917075,0.011342726562499999,0.083685391,0.02210452,0.279556625
3.04,-0.001918718,0.011343028,0.083685023,0.022105023,0.279555438
3.044,-0.001919657,0.011342626,0.083685227,0.022106833984374998,0.279554313
3.048,-0.001918517,0.011342223632812499,0.083684656,0.022107102,0.279555219
3.052,-0.001918383,0.011342928,0.083684383,0.022107002,0.27955556249999997
3.056,-0.001914326,0.011341989257812499,0.083682906,0.022105561,0.279557969
3.06,-0.001912717,0.011340682,0.083681734,0.022104687499999998,0.279559156
3.064,-0.00192016,0.011343699,0.083683477,0.022107404296874997,0.279553813
3.068,-0.00192301,0.011346113281249999,0.083685961,0.022109182,0.27955175
3.072,-0.001920864,0.011345777,0.083687469,0.022109951,0.2795535
3.076,-0.00192244,0.011347085,0.083689547,0.02211307,0.279551938
3.08,-0.001919221,0.011347051757812499,0.083688578,0.022112902343749997,0.279553875
3.084,-0.001918819,0.011346214,0.083688305,0.022112836,0.279554406
3.088,-0.001919255,0.011347454,0.083689109,0.022113203124999998,0.279553813
3.092,-0.001917981,0.011348560546874999,0.083688578,0.02211193,0.27955496874999997
3.096,-0.001915969,0.011346415,0.0836865,0.022112266,0.279556125
3.1,-0.001914728,0.01134675,0.083684688,0.022112533,0.27955712499999996
3.104,-0.001914628,0.011347454,0.083684383,0.022112734,0.27955712499999996
3.108,-0.001913119,0.011346045898437499,0.083682977,0.022110957,0.279558406
3.112,-0.001913119,0.011344705,0.083681633,0.022110555,0.279558719
3.116,-0.001913555,0.011344771,0.083680727,0.022110455,0.27955837499999997
3.12,-0.001910705,0.011344839,0.083678789,0.022109113,0.27956009374999996
3.124,-0.001910135,0.011344369,0.08367818,0.022108376953124998,0.279561094
3.128,-0.001914125,0.011343599,0.083679594,0.022109918,0.279558
3.132,-0.001912717,0.011343162109374999,0.083679523,0.022109951,0.279559094
3.136,-0.001912449,0.011343732421874999,0.083679188,0.022110387,0.279558656
3.14,-0.001910403,0.011344001,0.083678352,0.022111025,0.27955925
3.144,-0.001906648,0.011345274,0.083677781,0.022110588,0.279561813
3.148,-0.001905609,0.011347521,0.083678117,0.022110221,0.279563
3.152,-0.001908962,0.011347253,0.083678984,0.022110755859374998,0.279561188
3.156,-0.001910973,0.011345978515624999,0.083677984,0.022111191406249998,0.279559406
3.16,-0.001907956,0.011345644,0.083676305,0.022110689,0.279561219
3.164,-0.001903966,0.011344336,0.083674258,0.022109918,0.279564844
3.168,-0.001909867,0.011345342,0.083676875,0.02211374,0.279560219
3.172,-0.00190809,0.011346918,0.08367768,0.022114445312499998,0.279560719
3.176,-0.001905374,0.011346683,0.083676844,0.022113037,0.27956225
3.18,-0.001905542,0.011345576,0.083675164,0.02211307,0.279562219
3.184,-0.001905911,0.011346616210937499,0.083675266,0.02211307,0.279562063
3.188,-0.001902089,0.01134551,0.083672984,0.022109749999999997,0.279565844
3.192,-0.001904268,0.011344034179687499,0.08367332,0.022110387,0.279564781
3.196,-0.0019041,0.011345040039062499,0.083673055,0.022111059,0.27956490624999997
3.2,-0.001903497,0.01134618,0.083672211,0.022110957,0.27956528124999996
3.204,-0.001905173,0.011346817382812499,0.083672617,0.022111594,0.27956409374999996
3.208,-0.001903731,0.011345174,0.083672688,0.022111393,0.279565906
3.212,-0.001898568,0.011341587,0.08367057,0.022108812499999998,0.279570313
3.216,-0.001902726,0.011341452,0.083670367,0.022109113,0.279567406
3.22,-0.001902658,0.011342357,0.083669766,0.022109314453124997,0.279567
3.224,-0.001896959,0.011342324,0.083668023,0.022107705078124998,0.279571688
3.228,-0.001899809,0.011342357,0.083668859,0.022109215,0.27957003124999996
3.232,-0.001902156,0.011342995117187499,0.083670703,0.022111158,0.27956809374999997
3.236,-0.001900881,0.011341989257812499,0.083669703,0.02210965,0.279569125
3.24,-0.001900245,0.011343196,0.083668898,0.022109749999999997,0.279569969
3.244,-0.001900747,0.011344302734374999,0.083669938,0.022111393,0.279569594
3.248,-0.001897998,0.011345040039062499,0.08367007,0.022111191406249998,0.279572125
3.252,-0.001896791,0.011345677,0.083669227,0.022110354,0.279572969
3.256,-0.001899037,0.011345644,0.083669602,0.022112064,0.27957106249999997
3.26,-0.001897696,0.011345342,0.083668258,0.0221125,0.279571938
3.264,-0.00189773,0.011344906,0.083666781,0.022112266,0.27957187499999997
3.268,-0.001896355,0.011344001,0.083665375,0.022109749999999997,0.2795735
3.272,-0.001895349,0.011343498,0.083664,0.022108477,0.279574531
3.276,-0.001894042,0.01134209,0.083663063,0.022107873,0.27957565624999997
3.28,-0.001896959,0.011342693,0.083664703,0.022109549,0.279573563
3.284,-0.001894176,0.01134333,0.083664773,0.022108209,0.279575625
3.288,-0.00189193,0.011343028,0.083663867,0.022105561,0.279578094
3.292,-0.001889482,0.011341653320312499,0.083662797,0.022103212890624998,0.27958
3.296,-0.001889247,0.011341285,0.083662055,0.022102844,0.279580438
3.3,-0.001888242,0.011341486328124999,0.083660813,0.022102675781249997,0.27958125
3.304,-0.001889583,0.011340916015624999,0.083659945,0.022102507812499998,0.279580656
3.308,-0.001891963,0.01134038,0.083661586,0.022104285,0.27957925
3.312,-0.00189136,0.011339575,0.08366293,0.022105627,0.27958003124999997
3.316,-0.001886666,0.011337161132812499,0.083662359,0.022106465,0.279583625
3.32,-0.001887403,0.011336859,0.083661992,0.022106867,0.279583031
3.324,-0.001889247,0.011338569,0.083663867,0.022108611,0.27958078124999997
3.328,-0.001888812,0.01133981,0.083665609,0.022108477,0.279581688
3.332,-0.001887973,0.01134105,0.083667055,0.022106833984374998,0.279582125
3.336,-0.001884822,0.011341587,0.083665578,0.022104285,0.279584281
3.34,-0.001883816,0.011341688,0.083664836,0.022104117187499998,0.279585063
3.344,-0.001883648,0.011340581,0.083664406,0.022105057,0.279585219
3.348,-0.001883447,0.011340111,0.083664438,0.022106063,0.279585844
3.352,-0.001883984,0.011339776,0.083665578,0.022106800781249998,0.279585844
3.356,-0.001884587,0.011339407226562499,0.083666617,0.022107303,0.279585344
3.36,-0.001883715,0.011339709,0.083667187,0.022108410156249998,0.279585469
3.364,-0.001879759,0.011339407226562499,0.083666445,0.022107203,0.279588813
3.368,-0.001881335,0.011339844,0.083666953,0.022106566,0.279588094
3.372,-0.001882944,0.011339844,0.083667617,0.022106768,0.279586688
3.376,-0.00188281,0.011340179,0.083668828,0.022108074,0.279586625
3.38,-0.001880798,0.011339474609374999,0.083668187,0.022109785,0.279588063
3.384,-0.001879189,0.011340111,0.083668359,0.022109416015624998,0.279589188
3.388,-0.001877412,0.011339776,0.083667555,0.022108410156249998,0.279590781
3.392,-0.001878183,0.011338268,0.083668523,0.022109248,0.279590594
3.396,-0.001881033,0.011337832,0.083669969,0.022111092,0.27958731249999996
3.4,-0.001878217,0.011338301,0.083669063,0.022109516,0.279589031
3.404,-0.001878116,0.011338737304687499,0.083670203,0.022110421874999998,0.27958915624999997
3.408,-0.001879256,0.011339776,0.083671547,0.022111393,0.27958825
3.412,-0.001881536,0.011341251,0.083671945,0.022111963,0.279586531
3.416,-0.001878519,0.011340647460937499,0.083670703,0.022111594,0.27958875
3.42,-0.001879223,0.011340714843749999,0.083669867,0.022111359,0.27958849999999996
3.424,-0.001876541,0.011341754,0.08367007,0.022111662,0.279590063
3.428,-0.001875132,0.01134276,0.083669836,0.022110890624999997,0.27959249999999997
3.432,-0.001877446,0.011343531,0.083670031,0.022111761718749998,0.279590813
3.436,-0.001874328,0.011343028,0.083668523,0.022110924,0.279593156
3.44,-0.001874059,0.011342593,0.083668523,0.022110555,0.279592813
3.444,-0.001873154,0.01134209,0.083668523,0.022110555,0.279593219
3.448,-0.001871746,0.011340916015624999,0.083667758,0.022110387,0.279594688
3.452,-0.001872316,0.011341150390624999,0.083668523,0.022110555,0.27959465624999996
3.456,-0.001873322,0.011340983398437499,0.083669398,0.022112466796874997,0.279593125
3.46,-0.001869734,0.011340313,0.083667859,0.022111795,0.279595875
3.464,-0.001869634,0.011341150390624999,0.08366725,0.02211193,0.279596188
3.468,-0.001871478,0.011342257,0.083667523,0.022111059,0.279595438
3.472,-0.001874227,0.011344102,0.083669469,0.022112164,0.279593563
3.476,-0.001872249,0.011345878,0.083669266,0.022111427734374998,0.279595063
3.48,-0.001870405,0.011347454,0.083668523,0.02211099,0.279596188
3.484,-0.001871612,0.011347554687499999,0.083669031,0.022111561,0.279594844
3.488,-0.001870405,0.011345878,0.083668125,0.02211126,0.279595781
3.492,-0.001869567,0.011343431,0.083666281,0.022110555,0.27959709374999997
3.496,-0.001868192,0.011342928,0.083665742,0.022110924,0.279598
3.5,-0.001868796,0.011342392,0.083665539,0.022112266,0.279597125
3.504,-0.001868494,0.011341150390624999,0.083663063,0.022110755859374998,0.279597938
3.508,-0.001869064,0.011339910156249999,0.083662023,0.022109047,0.27959806249999997
3.512,-0.0018696,0.011339341,0.083661383,0.022108309,0.279597938
3.516,-0.001870472,0.011339474609374999,0.083660547,0.02210908,0.27959709374999997
3.52,-0.001867723,0.011340682,0.083659102,0.022108744140624997,0.27959881249999996
3.524,-0.001864504,0.011340346,0.083658234,0.022108376953124998,0.279601656
3.528,-0.001868192,0.011341251,0.083659508,0.022110152343749998,0.279599813
3.532,-0.001872148,0.011340916015624999,0.083660945,0.022111594,0.27959709374999997
3.536,-0.001870539,0.011340547,0.083659844,0.022109885,0.279597563
3.54,-0.001869131,0.011340815,0.083658602,0.022108477,0.279598031
3.544,-0.001867287,0.011340949,0.083656891,0.022105963,0.279599563
3.548,-0.001865577,0.011340916015624999,0.083656656,0.022105057,0.279601656
3.552,-0.001863733,0.011340111,0.083656219,0.022102273,0.279603094
3.556,-0.001864504,0.011339441,0.083654547,0.022100195312499998,0.27960243749999997
3.56,-0.001867052,0.011340682,0.08365518,0.022101537,0.27959999999999996
3.564,-0.001867153,0.011341150390624999,0.083655484,0.022101537,0.2795995
3.568,-0.001864202,0.011340480468749999,0.083654844,0.022100363,0.279602031
3.572,-0.001864202,0.011339407226562499,0.083653711,0.022099928,0.279602406
3.576,-0.00186618,0.011340815,0.083655352,0.022101369,0.279600031
3.58,-0.001862928,0.011342726562499999,0.083654945,0.022100195312499998,0.279602344
3.584,-0.001865074,0.011342995117187499,0.083655883,0.022101838,0.279600375
3.588,-0.001863699,0.011342793945312499,0.083655484,0.022101066406249998,0.279601875
3.592,-0.001866516,0.011341754,0.083656625,0.02210157,0.279599906
3.596,-0.001866683,0.011341553,0.08365793,0.022102576,0.279599813
3.6,-0.001866214,0.01134162,0.083659008,0.022104117187499998,0.279599906
3.604,-0.001863968,0.01134105,0.083658906,0.022104721,0.27960184374999997
3.608,-0.001865242,0.011341150390624999,0.083659578,0.022105023,0.27960087499999997
3.612,-0.001863833,0.011340883,0.083658336,0.022102006,0.279601875
3.616,-0.001863901,0.011340983398437499,0.083657461,0.022101033,0.279601344
3.62,-0.001858503,0.011340179,0.083654883,0.022098922,0.279605156
3.624,-0.001857631,0.011339844,0.083652867,0.022097244,0.27960696874999996
3.628,-0.001862425,0.011339944,0.08365475,0.022098084,0.27960375
3.632,-0.001861252,0.011338637,0.083654984,0.022098016,0.2796045
3.636,-0.001862694,0.011339240234374999,0.083656453,0.022100027,0.279603
3.64,-0.001860146,0.011338669921874999,0.083654883,0.022100027,0.279605438
3.644,-0.001863532,0.011336389648437499,0.083656289,0.022102945,0.279602781
3.648,-0.001863599,0.011337128,0.083657867,0.022103212890624998,0.279602969
3.652,-0.00186085,0.011338569,0.083656391,0.022100765624999998,0.27960556249999996
3.656,-0.001860347,0.011338904296874999,0.08365468,0.02209882,0.27960584374999997
3.66,-0.001859844,0.011336993,0.083653539,0.02209825,0.27960625
3.664,-0.001857899,0.011335317,0.083653336,0.022097412,0.279608094
3.668,-0.001858,0.011333070312499999,0.083652602,0.022095469,0.2796085
3.672,-0.001857061,0.011331193,0.083651531,0.022094261718749997,0.279608656
3.676,-0.001853842,0.011330288,0.083650727,0.022093523,0.279611094
3.68,-0.00186142,0.011332098632812499,0.083653438,0.022097814,0.279605438
3.684,-0.001858905,0.011332602,0.083653406,0.022097379,0.27960681249999997
3.688,-0.001857832,0.011333171,0.083653234,0.022095568359374998,0.279608031
3.692,-0.001857698,0.011333741,0.083653203,0.022095301,0.27960821874999997
3.696,-0.001858167,0.011333238,0.08365357,0.022096037109374998,0.279607313
3.7,-0.00185515,0.011332434,0.083652664,0.022096171874999997,0.279609594
3.704,-0.001855787,0.011332199,0.083653742,0.022097042968749998,0.279609438
3.708,-0.001854479,0.011331193,0.083654211,0.022096607421874997,0.279610781
3.712,-0.001855552,0.011331193,0.083654008,0.022096171874999997,0.279610188
3.716,-0.00185572,0.011333171,0.083653273,0.022095334,0.279609719
3.72,-0.001854278,0.011334613,0.083653539,0.0220951,0.279610844
3.724,-0.00185173,0.011334579101562499,0.08365257,0.022094998046874998,0.279612938
3.728,-0.001848277,0.011333674,0.083651094,0.022094025390624997,0.279615688
3.732,-0.001846902,0.011331495,0.083649984,0.022093221,0.279616938
3.736,-0.001854245,0.011331696,0.083652703,0.022097009765624998,0.27961059374999997
3.74,-0.00185411,0.0113323,0.083653438,0.02209852,0.279610031
3.744,-0.001851395,0.011332199,0.083653672,0.022099525,0.279612188
3.748,-0.001849283,0.011330891601562499,0.083654039,0.022099592,0.27961415624999997
3.752,-0.001852199,0.011330422,0.083655453,0.022101066406249998,0.279612094
3.756,-0.001852769,0.011331428,0.083656117,0.022100832,0.279611531
3.76,-0.001850858,0.011332768554687499,0.083656289,0.022100898,0.279612219
3.764,-0.001849752,0.011332937,0.083656625,0.022101501953124998,0.279613531
3.768,-0.001849316,0.011333372,0.083656055,0.022100162109374998,0.279614188
3.772,-0.001850791,0.011333640624999999,0.083655953,0.022098652,0.279613281
3.776,-0.001848746,0.011334579101562499,0.083655516,0.022097279296874998,0.279614688
3.78,-0.001847707,0.011334479,0.083654547,0.022097111,0.27961571874999996
3.784,-0.0018466,0.011332467,0.083653172,0.022095132812499998,0.279616563
3.788,-0.001847271,0.011331562,0.083652664,0.022093926,0.279615531
3.792,-0.00184422,0.011331092773437499,0.083652602,0.022093154,0.279617906
3.796,-0.00184479,0.011330756835937499,0.0836525,0.022094496,0.279617656
3.8,-0.001847304,0.011328913,0.083653508,0.022097580078124998,0.279615031
3.804,-0.001845025,0.011328243,0.08365418,0.022097916,0.279617438
3.808,-0.001845058,0.011328075195312499,0.083655352,0.022097514,0.27961787499999996
3.812,-0.001845159,0.011329282,0.083655883,0.02209691,0.279617969
3.816,-0.001845561,0.011330019531249999,0.083655313,0.022096238,0.279617469
3.82,-0.001842879,0.011328510742187499,0.083653742,0.022095535,0.279618781
3.824,-0.001840532,0.011328712,0.083653609,0.022096072,0.279620219
3.828,-0.001839392,0.011330221,0.083653336,0.022096003906249998,0.279621531
3.832,-0.001835704,0.011330221,0.083650656,0.022091813,0.27962525
3.836,-0.001845494,0.011330556,0.083653672,0.022095502,0.279618125
3.84,-0.001845796,0.011331595703124999,0.083655016,0.022097009765624998,0.279616875
3.844,-0.001843046,0.011332434,0.08365475,0.022096475,0.279619313
3.848,-0.001841236,0.011331327148437499,0.083654578,0.022095904,0.279620938
3.852,-0.001839425,0.011330188,0.083654375,0.022095836,0.279621594
3.856,-0.001837715,0.011329516601562499,0.083652938,0.0220954,0.27962231249999997
3.86,-0.001837313,0.01132841,0.083652195,0.022094865,0.27962290624999997
3.864,-0.001839124,0.011330086914062499,0.083653438,0.022094664062499998,0.27962106249999996
3.868,-0.001837112,0.011330422,0.083653172,0.022093055,0.27962275
3.872,-0.001835335,0.011327840820312499,0.083652164,0.022092652343749998,0.27962462499999996
3.876,-0.001836408,0.011326264648437499,0.083652102,0.022093055,0.279623688
3.88,-0.001833692,0.011327069335937499,0.083651195,0.022092383,0.27962431249999997
3.884,-0.00182749,0.011329349609374999,0.083649719,0.022090203,0.279628875
3.888,-0.001832854,0.011330656,0.083651023,0.022091881,0.279625844
3.892,-0.001832753,0.011330556,0.083650656,0.022091544921874998,0.279625406
3.896,-0.001827121,0.011327371,0.083646734,0.022088359374999998,0.27962965624999997
3.9,-0.001826316,0.011326365,0.083645562,0.022088359374999998,0.279630313
3.904,-0.001828227,0.011326063,0.083647305,0.022090572,0.279628375
3.908,-0.001828663,0.011327103,0.083648641,0.022091578,0.279628063
3.912,-0.001827557,0.011328243,0.083650156,0.022091813,0.279628938
3.916,-0.001824975,0.011328007812499999,0.083649688,0.022090974609374998,0.279631094
3.92,-0.001827221,0.011328510742187499,0.083650992,0.022092652343749998,0.27962925
3.924,-0.00182635,0.011328846679687499,0.083651094,0.022094126953124998,0.279630375
3.928,-0.001823366,0.01132898,0.083649852,0.022092484,0.279633625
3.932,-0.001821689,0.011327404,0.083648172,0.022090473,0.279635344
3.936,-0.001826048,0.011328007812499999,0.083649586,0.022092316,0.279631469
3.94,-0.001825813,0.011329718,0.083649484,0.022093019531249997,0.279631156
3.944,-0.001826484,0.011329952,0.083650086,0.022092451,0.27963084374999997
3.948,-0.001824271,0.011328478,0.083649516,0.022091143,0.27963224999999997
3.952,-0.001821086,0.01132831,0.083647742,0.022088762,0.279634813
3.956,-0.001818974,0.011328108,0.083645289,0.022086248,0.279636531
3.96,-0.001818605,0.011327337890624999,0.08364482,0.022086785,0.279636813
3.964,-0.001818839,0.011326231,0.083645859,0.022087992,0.279636469
3.968,-0.001820348,0.01132422,0.083647437,0.022089935546874998,0.279636063
3.972,-0.001820583,0.011323448242187499,0.083648477,0.022091076171874998,0.279635781
3.976,-0.001817599,0.011322309,0.083646328,0.022089801,0.279638094
3.98,-0.001817699,0.011322309,0.083645391,0.022089299,0.279637688
3.984,-0.001819678,0.011323214,0.083645562,0.022089935546874998,0.279636156
3.988,-0.001821253,0.011323918,0.083646664,0.022090941,0.27963456249999996
3.992,-0.001818068,0.011323146,0.083645625,0.022090473,0.279637125
3.996,-0.001815219,0.011322141,0.083643578,0.022089398437499998,0.279638594
4,-0.001813408,0.01132147,0.083641602,0.022088293,0.27964
4.004,-0.001813073,0.011321839,0.083640695,0.022087656,0.279640219
4.008,-0.001813207,0.011322006835937499,0.08364107,0.022088293,0.279639938
4.012,-0.001813475,0.011322241210937499,0.083642711,0.022089398437499998,0.279639438
4.016,-0.001811363,0.011321906,0.083642813,0.022089968749999998,0.279640688
4.02,-0.001811229,0.011322073,0.083642977,0.022092049,0.27964025
4.024,-0.001811598,0.011322409,0.08364382,0.022093322,0.279640219
4.028,-0.001809686,0.011323649,0.083643648,0.022093322,0.279642063
4.032,-0.001811598,0.011323749999999999,0.083644555,0.022094427734374998,0.279641031
4.036,-0.001813643,0.011323146,0.083644555,0.022095433593749998,0.279639125
4.04,-0.001809049,0.011322543,0.083641875,0.022093221,0.279642625
4.044,-0.001810424,0.011323314,0.083642039,0.02209349,0.2796415
4.048,-0.001810692,0.011324252929687499,0.083642305,0.022093154,0.27964153124999996
4.052,-0.00181029,0.011323079,0.08364157,0.022091746,0.279642063
4.056,-0.001808781,0.011322208,0.083640563,0.022091176,0.279642906
4.06,-0.001807071,0.011322644,0.083640461,0.022091947,0.279643563
4.064,-0.001806837,0.011323817382812499,0.083640359,0.022092550781249998,0.27964412499999997
4.068,-0.001807004,0.011323046,0.083640297,0.022092451,0.279644406
4.072,-0.001803283,0.011320766,0.083638453,0.022089968749999998,0.27964790624999997
4.076,-0.00180174,0.011320866210937499,0.083638086,0.022088428,0.279648813
4.08,-0.00179946,0.011321269,0.083637008,0.022087422,0.27965006249999996
4.084,-0.001806334,0.011321537,0.083638617,0.022090137,0.279645438
4.088,-0.001806501,0.011322274,0.083639859,0.022091209,0.279645281
4.092,-0.001803752,0.011321537,0.083639125,0.022089836,0.279647813
4.096,-0.001802143,0.0113208,0.083637852,0.022088762,0.27964931249999997
4.1,-0.001801807,0.011319895,0.083637109,0.022090002,0.2796495
4.104,-0.001799628,0.011318117187499999,0.083636008,0.022089935546874998,0.279651563
4.108,-0.001798421,0.011318251953124999,0.083635102,0.022086986,0.279653188
4.112,-0.001798823,0.011318587,0.083635102,0.022086852,0.279653
4.116,-0.00179765,0.011318117187499999,0.083633891,0.022086248,0.279653344
4.12,-0.001797985,0.011318486,0.083632922,0.022087086,0.27965275
4.124,-0.001797885,0.011319224,0.083633828,0.022088929687499998,0.279652094
4.128,-0.001794532,0.011319057,0.08363493,0.022089131,0.279654531
4.132,-0.001789805,0.011315602539062499,0.083633523,0.022086013671874998,0.2796585
4.136,-0.001792487,0.011314496,0.083632586,0.022085341796874998,0.279656313
4.14,-0.001791716,0.011314765,0.083632148,0.022085107,0.27965599999999996
4.144,-0.001790609,0.011314697,0.083632219,0.022085275,0.27965703124999997
4.148,-0.001791447,0.011314362304687499,0.083632789,0.022086583984374998,0.27965681249999996
4.152,-0.001795135,0.011314999,0.083633828,0.022089299,0.279654375
4.156,-0.001794297,0.0113152,0.083635031,0.022091544921874998,0.27965487499999997
4.16,-0.00179081,0.011313155,0.083635031,0.022092082031249998,0.279657594
4.164,-0.001789905,0.011313323,0.083635031,0.022092283,0.279658625
4.168,-0.001788966,0.011313859374999999,0.083634328,0.022090707,0.279659375
4.172,-0.001788464,0.011313893,0.083633555,0.022089131,0.279659563
4.176,-0.001785614,0.011313188,0.083631008,0.022086416,0.279661906
4.18,-0.001788631,0.011313423828124999,0.08363168,0.022088628906249998,0.279659594
4.184,-0.001788262,0.01131453,0.08363282,0.022089668,0.27965999999999996
4.188,-0.001789738,0.011314797851562499,0.083635,0.022091143,0.27965875
4.192,-0.001787323,0.011314697,0.083635102,0.022091377,0.279660781
4.196,-0.001788162,0.011314429687499999,0.083634727,0.022090673828124997,0.27965978124999996
4.2,-0.001786217,0.011314596679687499,0.083632883,0.022090103515624997,0.279660781
4.204,-0.001785312,0.011312686,0.083632484,0.022090539062499998,0.279661156
4.208,-0.001785077,0.011312484,0.083633219,0.022090941,0.279661594
4.212,-0.001786116,0.011313558,0.083634563,0.022092584,0.279661594
4.216,-0.001788061,0.011314697,0.083635773,0.022093725,0.279659688
4.22,-0.001787022,0.011314966,0.083635266,0.022092953,0.279660625
4.224,-0.001785144,0.011314429687499999,0.08363493,0.022092182,0.279662406
4.228,-0.001784306,0.011313188,0.083634797,0.022091980468749998,0.27966415624999996
4.232,-0.001786485,0.011313791992187499,0.083635906,0.022092550781249998,0.279662625
4.236,-0.001788329,0.011312686,0.083635906,0.022093457,0.2796605
4.24,-0.001784474,0.011312149,0.083633992,0.022092215,0.279662656
4.244,-0.001783434,0.011313223,0.083632883,0.022091008,0.279663813
4.248,-0.001784809,0.011313624999999999,0.083634766,0.022093188,0.279663125
4.252,-0.001785982,0.011313256,0.083636438,0.022093421874999998,0.27966259374999997
4.256,-0.00178558,0.011315368164062499,0.083636742,0.022093959,0.279662906
4.26,-0.001784977,0.011317011,0.083636609,0.022095232,0.27966325
4.264,-0.001783334,0.011318017,0.083636773,0.022095132812499998,0.279664531
4.268,-0.001781322,0.011317916,0.083635836,0.022092584,0.279666219
4.272,-0.001779612,0.011316844,0.083634828,0.022091813,0.27966793749999996
4.276,-0.001778405,0.011316508,0.083634297,0.022090908,0.279667844
4.28,-0.0017776,0.011315602539062499,0.083633727,0.022090842,0.279668344
4.284,-0.001782697,0.011316005,0.083634898,0.022093121093749998,0.2796645
4.288,-0.00178263,0.011314865234374999,0.083634727,0.02209349,0.27966525
4.292,-0.001781624,0.011314898,0.08363557,0.022093154,0.279666469
4.296,-0.00177817,0.01131282,0.083634227,0.022093154,0.279668719
4.3,-0.001779042,0.011312016,0.083633758,0.022094227,0.279667656
4.304,-0.00177579,0.011312048828124999,0.083632984,0.022092887,0.279670875
4.308,-0.001776829,0.011310909,0.083632984,0.022092887,0.27967112499999996
4.312,-0.001777936,0.011311714,0.08363443,0.022092818,0.27967015624999997
4.316,-0.001773979,0.011310472656249999,0.083631211,0.022089533203124997,0.279673188
4.32,-0.001777567,0.011311144,0.083630469,0.022091544921874998,0.27967015624999997
4.324,-0.001776662,0.011312116210937499,0.083630875,0.022092115234374998,0.279670125
4.328,-0.001775052,0.011310774414062499,0.083630609,0.022090773,0.279672125
4.332,-0.001778707,0.011310573,0.083632383,0.022092316,0.27966949999999996
4.336,-0.001777265,0.011311545898437499,0.083633219,0.022093556640624998,0.279670281
4.34,-0.001778439,0.011312585,0.08363493,0.022096574218749998,0.27966934374999997
4.344,-0.001776259,0.011312350585937499,0.083635367,0.022097009765624998,0.279670938
4.348,-0.001776427,0.011312920898437499,0.083636375,0.022096977,0.27967156249999997
4.352,-0.001774181,0.011314061,0.083635805,0.0220954,0.279673188
4.356,-0.001771264,0.011313524,0.083634227,0.022093725,0.279675375
4.36,-0.001776762,0.011312920898437499,0.083636336,0.022097949,0.279671031
4.364,-0.001775321,0.011313658,0.083635969,0.022098787,0.279672188
4.368,-0.001776092,0.011312920898437499,0.083636039,0.022097949,0.27967268749999996
4.372,-0.001776595,0.011312016,0.083637414,0.022098486,0.279672469
4.376,-0.001773309,0.011310573,0.083635703,0.022097514,0.279675469
4.38,-0.001776796,0.011310674,0.08363493,0.022097814,0.279673406
4.384,-0.001776159,0.011311981,0.083634766,0.022098385,0.279674063
4.388,-0.001774013,0.011310305664062499,0.083633758,0.022098016,0.279676563
4.392,-0.001775421,0.011308696,0.083634063,0.02209825,0.279675813
4.396,-0.001775689,0.011306584,0.083633391,0.022098585937499998,0.27967565624999996
4.4,-0.001773577,0.011309299804687499,0.08363232,0.022096508,0.27967675
4.404,-0.001768079,0.011309064,0.083630039,0.02209349,0.279681406
4.408,-0.001774751,0.011308059570312499,0.08363218,0.022096977,0.279676656
4.412,-0.001772303,0.011307992,0.083632984,0.022097144531249998,0.279678406
4.416,-0.001770627,0.011309299804687499,0.083632953,0.022097748046874997,0.279679094
4.42,-0.001767207,0.011308562,0.083630773,0.02209634,0.27968125
4.424,-0.001765665,0.011306818,0.083630273,0.022095736,0.27968240624999996
4.428,-0.001765195,0.01130541,0.08362957,0.022095199,0.27968328124999997
4.432,-0.001766603,0.011305578,0.083629234,0.022095736,0.279682438
4.436,-0.001765765,0.011306014,0.083629469,0.022096105,0.279682375
4.44,-0.001762144,0.011305041992187499,0.08362732,0.022093791,0.279684875
4.444,-0.001763318,0.011304103,0.083627055,0.022095166,0.279684531
4.448,-0.001763251,0.011303700195312499,0.083627289,0.022094965,0.279684938
4.452,-0.001765631,0.011303700195312499,0.083628328,0.022095904,0.279683594
4.456,-0.001766033,0.011303533203124999,0.083628195,0.022095904,0.279683125
4.46,-0.001767576,0.011303063,0.083628328,0.022096607421874997,0.27968125
4.464,-0.001767375,0.01130293,0.083627961,0.022095132812499998,0.279681
4.468,-0.001765531,0.011301622,0.083626648,0.022093992187499998,0.279683094
4.472,-0.001767274,0.011301019,0.083627758,0.022095301,0.279682125
4.476,-0.001766637,0.011300918,0.083628258,0.022094998046874998,0.279682719
4.48,-0.001768816,0.011301924,0.083627586,0.022094261718749997,0.279681313
4.484,-0.001768582,0.011302527343749999,0.083627453,0.022094629,0.279681344
4.488,-0.001767173,0.011301487,0.083627352,0.022092550781249998,0.279683375
4.492,-0.001766872,0.011300415,0.083626078,0.022090941,0.279683594
4.496,-0.001766905,0.011301521,0.083626352,0.022091578,0.279683125
4.5,-0.001763754,0.011301924,0.083625039,0.022090572,0.279684875
4.504,-0.001764659,0.011301823,0.083624172,0.022089299,0.279684438
4.508,-0.001766704,0.01130199,0.083625141,0.022090103515624997,0.279682781
4.512,-0.001764357,0.011301889648437499,0.083624234,0.022089299,0.279684688
4.516,-0.001764625,0.011300013,0.083623602,0.02208883,0.279684688
4.52,-0.001767978,0.011300146484374999,0.083624508,0.022091679687499997,0.279682
4.524,-0.001768179,0.011301924,0.083625008,0.022092986328124998,0.279681594
4.528,-0.001766402,0.011302191,0.083624102,0.022090941,0.279682813
4.532,-0.001765162,0.011301789,0.083623469,0.0220896,0.279683906
4.536,-0.001767341,0.011301688,0.083624672,0.022089064453124998,0.279681969
4.54,-0.00176486,0.011301588,0.083622898,0.022088326,0.279683688
4.544,-0.001769151,0.011302125,0.083623664,0.022090539062499998,0.279680063
4.548,-0.00176838,0.011302661,0.083624133,0.022090941,0.279681031
4.552,-0.001765296,0.011302058,0.083622859,0.022089533203124997,0.27968343749999997
4.556,-0.001763955,0.011300079101562499,0.083621148,0.022088628906249998,0.27968475
4.56,-0.001768045,0.011299877929687499,0.083622492,0.022091377,0.27968143749999996
4.564,-0.001768515,0.011300079101562499,0.083622695,0.022092584,0.279681781
4.568,-0.001770392,0.011300079101562499,0.08362243,0.022093121093749998,0.279680563
4.572,-0.001765262,0.011298235,0.083620313,0.022090505859374998,0.27968424999999997
4.576,-0.001763519,0.011297833007812499,0.083618906,0.022089164,0.279685688
4.58,-0.001763418,0.011298604,0.083617094,0.022087254,0.279685906
4.584,-0.001762647,0.011298336,0.083616086,0.022086181640624997,0.279686938
4.588,-0.00176362,0.011297464843749999,0.083616023,0.022085476562499998,0.279686531
4.592,-0.001763519,0.011297565,0.083615188,0.022084236,0.279686281
4.596,-0.001761407,0.011297128906249999,0.083613672,0.022083566406249998,0.279688063
4.6,-0.001765665,0.011298134765624999,0.083615383,0.022087019531249998,0.279684531
4.604,-0.001765832,0.011297297,0.083615891,0.022087992,0.27968475
4.608,-0.00176771,0.011296660156249999,0.0836175,0.022088929687499998,0.279683625
4.612,-0.001767006,0.011295855,0.083618305,0.022089836,0.279684531
4.616,-0.001763921,0.011295888671874999,0.083617633,0.022088797,0.279685969
4.62,-0.001763653,0.011297531,0.083618734,0.022090203,0.279686063
4.624,-0.001764089,0.011297934,0.083619641,0.022092215,0.279685906
4.628,-0.001761507,0.011297498,0.083617602,0.022088896,0.279688438
4.632,-0.001761876,0.011295554,0.083616758,0.022088595703124998,0.279688375
4.636,-0.001761708,0.011295586914062499,0.083616391,0.022088628906249998,0.279688656
4.64,-0.001757987,0.011295721,0.083614547,0.022087957031249997,0.279691188
4.644,-0.001758155,0.011296157226562499,0.083613773,0.022087254,0.279691938
4.648,-0.001766033,0.011296794,0.083616656,0.022090137,0.279686594
4.652,-0.001767106,0.011297330078124999,0.083617867,0.022091813,0.279685031
4.656,-0.001765296,0.011296995,0.083617633,0.022091914,0.279686219
4.66,-0.001762982,0.011296827148437499,0.083617195,0.022091881,0.279687531
4.664,-0.001761105,0.011296794,0.083616125,0.022092249999999997,0.279689063
4.668,-0.001764156,0.011296057,0.083616656,0.022093154,0.279687188
4.672,-0.001763117,0.011295318359374999,0.083616594,0.022092283,0.279688156
4.676,-0.00176191,0.011295151367187499,0.083616594,0.022092115234374998,0.279688969
4.68,-0.001762748,0.011295252,0.083617531,0.022093154,0.279688063
4.684,-0.00176134,0.011293809570312499,0.083615555,0.022090807,0.279689625
4.688,-0.00176144,0.011292871,0.083615148,0.022090842,0.279690219
4.692,-0.001760032,0.011292837890624999,0.083614383,0.022089566,0.27969115624999996
4.696,-0.001758926,0.011292401,0.083612438,0.022086917968749998,0.27969234374999996
4.7,-0.001765162,0.011294882812499999,0.083614648,0.022090238,0.27968721874999997
4.704,-0.001760032,0.011294916,0.083613141,0.022090305,0.279690156
4.708,-0.001759931,0.011292603,0.083613039,0.022091377,0.279690844
4.712,-0.001761105,0.011292536,0.083613875,0.022092383,0.27969
4.716,-0.001760837,0.011292234,0.083614211,0.022092887,0.279689656
4.72,-0.001760099,0.011292636718749999,0.083613875,0.022092953,0.279689938
4.724,-0.001758993,0.011294882812499999,0.083613641,0.022091746,0.279691094
4.728,-0.001757417,0.011293709,0.083612531,0.022091511718749998,0.279692969
4.732,-0.001759127,0.011291396,0.083611867,0.022091679687499997,0.2796925
4.736,-0.001760736,0.011292300781249999,0.083611633,0.022091947,0.279690125
4.74,-0.001760568,0.011292033,0.08361093,0.022091848,0.279689781
4.744,-0.001759395,0.011292904,0.083609617,0.022090238,0.279690219
4.748,-0.001758255,0.01129096,0.083607273,0.022088729,0.279692219
4.752,-0.001765531,0.01128972,0.083609414,0.022092148,0.279686938
4.756,-0.00176305,0.011289786,0.083608109,0.022092049,0.27968824999999997
4.76,-0.001760066,0.011289619,0.083606766,0.022091511718749998,0.279689906
4.764,-0.00175973,0.011289116,0.083605297,0.022090271,0.279690063
4.768,-0.001758724,0.011287506835937499,0.083603984,0.022087923828124998,0.27969115624999996
4.772,-0.001761507,0.011286266601562499,0.083603117,0.022086917968749998,0.279689313
4.776,-0.001762278,0.011286099,0.083601773,0.022085846,0.2796885
4.78,-0.001761239,0.011284154,0.083599359,0.022083732,0.279689125
4.784,-0.001762044,0.011282410156249999,0.083597484,0.022083197,0.279688969
4.788,-0.001761809,0.01128164,0.083596508,0.022082458984374997,0.279689469
4.792,-0.001758926,0.011278387,0.083593422,0.022079676,0.2796925
4.796,-0.001762848,0.011278019,0.083593758,0.022079708984374998,0.27968959374999997
4.8,-0.001764189,0.011279259,0.083595406,0.022081318359374998,0.27968775
4.804,-0.001762479,0.011279359374999999,0.083594695,0.022079843749999998,0.279689344
4.808,-0.001760166,0.011279963,0.083594031,0.022079475,0.279691625
4.812,-0.00175688,0.011280298,0.083594695,0.022077832031249998,0.27969475
4.816,-0.001755975,0.011278084960937499,0.083594836,0.022078871,0.279695344
4.82,-0.001754969,0.011277280273437499,0.0835955,0.022081822,0.279695781
4.824,-0.001758087,0.011278454,0.083597719,0.022085074,0.279693469
4.828,-0.001759429,0.011281338,0.083599289,0.022086146,0.279692969
4.832,-0.00175916,0.011280634,0.083600195,0.022086885,0.279693438
4.836,-0.001759529,0.011280466,0.083600836,0.022088193359374998,0.27969293749999996
4.84,-0.001758389,0.011281907226562499,0.083600867,0.022089398437499998,0.27969359374999997
4.844,-0.001756411,0.011281203,0.083600367,0.022089131,0.27969553124999996
4.848,-0.001756545,0.011281338,0.083600398,0.022088863,0.279696094
4.852,-0.001757149,0.011280734374999999,0.083600898,0.022087824,0.279695656
4.856,-0.001753729,0.011280164062499999,0.083599695,0.022086215,0.279697938
4.86,-0.001751181,0.011279426757812499,0.083598383,0.022084639,0.279699938
4.864,-0.001752555,0.011279795,0.083598555,0.022084572265624998,0.279698906
4.868,-0.001754533,0.011281371,0.083599094,0.022084303,0.279698281
4.872,-0.001755036,0.011279929687499999,0.083599391,0.022084504,0.279698281
4.876,-0.001753494,0.011279326,0.083600398,0.022086516,0.279699281
4.88,-0.001752019,0.011279292,0.083600367,0.022088158,0.279700594
4.884,-0.001749538,0.011279191,0.083599227,0.022087187499999997,0.27970271874999997
4.888,-0.001753125,0.011280466,0.08359993,0.022087353515624998,0.27970034374999997
4.892,-0.001753729,0.011282175781249999,0.083601203,0.022088359374999998,0.27969931249999996
4.896,-0.001747996,0.011283114257812499,0.083599359,0.022086383,0.27970346874999996
4.9,-0.001748063,0.011283483398437499,0.083598555,0.022085846,0.279702625
4.904,-0.00174766,0.011284054,0.083598687,0.022085779,0.279702906
4.908,-0.001748599,0.011282646,0.083599094,0.02208608,0.279703031
4.912,-0.001750879,0.011283249023437499,0.083599797,0.022087254,0.279701625
4.916,-0.001749135,0.011283584,0.083600703,0.022089768,0.279702906
4.92,-0.001746856,0.011283651,0.083600398,0.022090439,0.27970475
4.924,-0.001746386,0.011283853,0.083601133,0.022090640624999998,0.279705281
4.928,-0.001744643,0.011283584,0.083600734,0.022089902,0.279706156
4.932,-0.001741592,0.011281807,0.083599023,0.022088092,0.27970843749999996
4.936,-0.001744308,0.011281102539062499,0.083599023,0.022090371,0.27970575
4.94,-0.001740988,0.011280969,0.083598055,0.022091479,0.27970843749999996
4.944,-0.00173891,0.011281539,0.083597617,0.022091344,0.2797105
4.948,-0.001742229,0.011281472,0.083597617,0.022090941,0.27970843749999996
4.952,-0.001741625,0.011279996,0.083597047,0.022089935546874998,0.27970909374999997
4.956,-0.001741659,0.011280265,0.083597383,0.022090505859374998,0.279708781
4.96,-0.001740385,0.011280365234374999,0.083596812,0.022090137,0.27970924999999996
4.964,-0.001739915,0.011279963,0.083597016,0.022091377,0.27971006249999997
4.968,-0.001737703,0.011278655,0.083596539,0.022091109374999997,0.27971243749999997
4.972,-0.001736395,0.011277884,0.083596039,0.022089734,0.279713719
4.976,-0.00173559,0.01127822,0.083596773,0.022091109374999997,0.279713906
4.98,-0.001734216,0.011277582031249999,0.083596445,0.022092148,0.279715531
4.984,-0.001737334,0.011278856445312499,0.083598219,0.022093859,0.279712688
4.988,-0.001734752,0.011278957,0.083598289,0.022093221,0.279715344
4.992,-0.001740955,0.011279292,0.083600367,0.022096205,0.279710938
4.996,-0.001739077,0.011279561,0.083599289,0.022096003906249998,0.279711969
5,-0.001737602,0.011279292,0.083597617,0.022095334,0.27971303124999997
5.004,-0.001737703,0.011278521,0.083596945,0.022093992187499998,0.279713594
5.008,-0.001738641,0.011277717,0.08359775,0.022093019531249997,0.279713063
5.012,-0.001737568,0.011277013,0.083596914,0.022091076171874998,0.279713438
5.016,-0.001736093,0.011277247,0.083596578,0.022091980468749998,0.279714313
5.02,-0.001737937,0.011278487,0.083596977,0.022092953,0.27971340624999996
5.024,-0.001738608,0.011278723,0.083598352,0.022094126953124998,0.279712344
5.028,-0.001735792,0.011278387,0.083597109,0.022092617,0.279714969
5.032,-0.001734953,0.011278084960937499,0.083596773,0.022092383,0.27971625
5.036,-0.00173777,0.011277347656249999,0.083598219,0.022094529,0.279713656
5.04,-0.001738373,0.011277415039062499,0.083597617,0.022094328,0.279713125
5.044,-0.001737032,0.011279226,0.08359768,0.022094193,0.279714125
5.048,-0.001736697,0.011279292,0.083597852,0.022094061,0.279715281
5.052,-0.0017372,0.01127899,0.083598219,0.022094496,0.279714563
5.056,-0.001733344,0.011279024,0.083597047,0.022093457,0.27971696874999996
5.06,-0.001735456,0.011278957,0.08359718,0.022095904,0.279715344
5.064,-0.001734249,0.011278856445312499,0.083596773,0.022096307,0.279715813
5.068,-0.001734585,0.011277280273437499,0.083595906,0.022097009765624998,0.27971681249999997
5.072,-0.001739245,0.011276744,0.083596812,0.022099961,0.27971346874999997
5.076,-0.001737937,0.011277415039062499,0.083596375,0.022099994,0.27971443749999997
5.08,-0.001734786,0.011277415039062499,0.083595469,0.022100060546874998,0.279716938
5.084,-0.001735892,0.01127775,0.083595336,0.022100664,0.2797165
5.088,-0.001731735,0.011276644,0.083593555,0.022098418,0.27971999999999997
5.092,-0.001732908,0.011276241,0.083592352,0.022098150390624998,0.279719281
5.096,-0.001733445,0.011278420898437499,0.083593156,0.022099658,0.279718094
5.1,-0.001732975,0.011279226,0.083593227,0.022099928,0.27971821874999997
5.104,-0.00173093,0.011278387,0.083591578,0.022098150390624998,0.279719719
5.108,-0.001727443,0.011276711,0.083589539,0.022094797,0.27972318749999997
5.112,-0.001731869,0.011276309,0.083590508,0.02209634,0.2797205
5.116,-0.001729991,0.011276610351562499,0.083590141,0.022096373,0.2797215
5.12,-0.001728483,0.011275838867187499,0.083588562,0.022095971,0.279722688
5.124,-0.001726337,0.011275504,0.083587625,0.022096842,0.27972453124999996
5.128,-0.001726907,0.011275471,0.083587391,0.022096307,0.27972415624999997
5.132,-0.001730092,0.011275504,0.083588094,0.02209577,0.279721875
5.136,-0.001732673,0.011277079,0.083589297,0.022097714843749998,0.279719813
5.14,-0.001730494,0.011277683,0.083588125,0.022096574218749998,0.2797215
5.144,-0.001729153,0.011276812,0.083587055,0.02209416,0.27972274999999996
5.148,-0.001731265,0.011276542968749999,0.083587219,0.02209473,0.27972140624999997
5.152,-0.00172922,0.011276477,0.083586953,0.022094629,0.279722938
5.156,-0.001728516,0.011276744,0.083587859,0.022095469,0.279723313
5.16,-0.001725331,0.011275671874999999,0.083587125,0.022094395,0.279725406
5.164,-0.001728449,0.011276477,0.083587891,0.022095635,0.279723594
5.168,-0.001731701,0.011277817,0.0835895,0.022097211,0.279721
5.172,-0.001731433,0.011277013,0.083590344,0.022097379,0.279721156
5.176,-0.001728617,0.011275571,0.083589438,0.022096877,0.279722906
5.18,-0.001725297,0.011275235,0.083587188,0.02209416,0.27972571874999996
5.184,-0.001729589,0.011276275,0.083588461,0.022096307,0.279722656
5.188,-0.001730964,0.011277381,0.083590344,0.022098922,0.2797215
5.192,-0.001727477,0.011277314,0.083590672,0.022098922,0.279724406
5.196,-0.001725633,0.011277616210937499,0.083590711,0.022098418,0.279725406
5.2,-0.001725297,0.011277013,0.083589836,0.022097379,0.279725031
5.204,-0.001721274,0.011274699,0.08358793,0.022095334,0.279728125
5.208,-0.001720369,0.011273459,0.083586453,0.022093154,0.27972975
5.212,-0.001726873,0.011274028320312499,0.083588797,0.022096508,0.279724594
5.216,-0.001726203,0.011273861328124999,0.083588898,0.022098318,0.27972453124999996
5.22,-0.001725532,0.011274833007812499,0.083588398,0.022098889,0.27972525
5.224,-0.001722548,0.011273258,0.083587055,0.022098016,0.27972734374999997
5.228,-0.00171943,0.011271279296874999,0.083584844,0.02209483,0.279730063
5.232,-0.001718927,0.011270708984374999,0.083584875,0.02209416,0.279730375
5.236,-0.001720168,0.011269972,0.083584805,0.022095334,0.27972912499999997
5.24,-0.001720302,0.011269502,0.083583031,0.022095367,0.279728719
5.244,-0.00171943,0.0112691,0.083581492,0.022095166,0.279729438
5.248,-0.001717988,0.011268094,0.083581289,0.02209483,0.27973068749999996
5.252,-0.001717452,0.011268094,0.083580953,0.022095031249999997,0.279731594
5.256,-0.001716849,0.011268329,0.08358125,0.022096205,0.279731625
5.26,-0.001720302,0.011270173,0.083583063,0.022099691,0.279728344
5.264,-0.001719397,0.011271883,0.083584438,0.022099994,0.279728625
5.268,-0.001713999,0.011270676,0.083582859,0.022097412,0.27973349999999997
5.272,-0.001718525,0.011270843749999999,0.083584641,0.022100229,0.279730406
5.276,-0.001717385,0.011271682,0.083585109,0.022100195312499998,0.27973068749999996
5.28,-0.001714401,0.011270843749999999,0.083583836,0.022099928,0.279732438
5.284,-0.001712859,0.011270743,0.083583367,0.022100162109374998,0.279734219
5.288,-0.001710143,0.0112691,0.083581586,0.022098217,0.27973721874999996
5.292,-0.001711115,0.011267625,0.08358082,0.022097848,0.279737156
5.296,-0.001712389,0.011268396,0.083581758,0.022098854,0.279735906
5.3,-0.001711216,0.011268999,0.083581492,0.022099391,0.2797365
5.304,-0.001709975,0.011269200195312499,0.083581117,0.022098922,0.279737469
5.308,-0.001710244,0.011268161,0.083580922,0.022098753906249997,0.27973775
5.312,-0.001710914,0.011268094,0.083581016,0.022099424,0.279737469
5.316,-0.001711283,0.011268194335937499,0.083581422,0.022100229,0.27973684374999996
5.32,-0.001707863,0.011267993,0.083579883,0.022099859,0.27973875
5.324,-0.001708735,0.011269066,0.083579273,0.022100195312499998,0.279738219
5.328,-0.001713127,0.011269569,0.083582594,0.022103951,0.27973484374999996
5.332,-0.001707461,0.011268933,0.083582023,0.022102105468749998,0.2797395
5.336,-0.001711484,0.011269335,0.083582531,0.022102273,0.279736656
5.34,-0.001710679,0.011270105,0.08358243,0.022103582,0.279736344
5.344,-0.001707628,0.011269904,0.083580586,0.022102072265624998,0.279738344
5.348,-0.001705885,0.011269770507812499,0.083579578,0.022100865,0.27973965624999997
5.352,-0.001703907,0.011268664,0.083579078,0.022100195312499998,0.27974075
5.356,-0.001704309,0.011268496,0.08357807,0.022100531,0.27973965624999997
5.36,-0.00170508,0.011270273437499999,0.083578844,0.022101501953124998,0.279738938
5.364,-0.001707293,0.011272721,0.083580648,0.022103212890624998,0.27973787499999997
5.368,-0.001706053,0.011271849609374999,0.083580281,0.02210348,0.279739031
5.372,-0.001705114,0.011270776367187499,0.083580078,0.022104218749999998,0.279739906
5.376,-0.001701929,0.01127091,0.083578937,0.022102475,0.279742125
5.38,-0.001702901,0.011271078,0.083578508,0.022102675781249997,0.279741688
5.384,-0.001707193,0.011271849609374999,0.083580922,0.022105895,0.279737844
5.388,-0.001706455,0.011272486,0.083581859,0.022106498,0.279738969
5.392,-0.001705617,0.01127319,0.083580922,0.022105057,0.27974003124999997
5.396,-0.001705851,0.011274028320312499,0.083581086,0.022105158,0.27973943749999997
5.4,-0.001704343,0.011275168945312499,0.083581016,0.022104957,0.27974024999999997
5.404,-0.001704577,0.011275034179687499,0.083580617,0.022104353515624998,0.279740219
5.408,-0.001706354,0.011275202,0.08358125,0.022105561,0.27973875
5.412,-0.001704343,0.011274498,0.083580383,0.022105561,0.279740281
5.416,-0.001702733,0.011274598632812499,0.08358075,0.022106063,0.279741281
5.42,-0.001700856,0.01127433,0.083579914,0.022105492,0.27974240624999996
5.424,-0.0017027,0.011274498,0.083580516,0.022106432,0.279741031
5.428,-0.001704611,0.011275537109374999,0.083582195,0.022107705078124998,0.279739563
5.432,-0.00170156,0.011274129,0.083580953,0.022105895,0.27974175
5.436,-0.001698777,0.011273089843749999,0.083577836,0.022104018,0.279743938
5.44,-0.001706857,0.011275101562499999,0.083579711,0.022108410156249998,0.279737563
5.444,-0.001706421,0.011276241,0.083580281,0.022109182,0.279738188
5.448,-0.001704913,0.01127527,0.08357968,0.022107974609374997,0.279740156
5.452,-0.001704577,0.011274632,0.083579742,0.0221069,0.279740344
5.456,-0.001703538,0.011274732,0.083578367,0.022104555,0.2797405
5.46,-0.001704879,0.011274666015624999,0.083577398,0.022105057,0.279739094
5.464,-0.001706522,0.011276376,0.083578,0.022106297,0.2797375
5.468,-0.00170679,0.011276376,0.083578672,0.022107371093749998,0.279737781
5.472,-0.001707729,0.011276477,0.083578773,0.022106633,0.27973706249999997
5.476,-0.001707796,0.011275806,0.083577664,0.022105828124999997,0.279736375
5.48,-0.001704108,0.011274163085937499,0.083575922,0.02210509,0.279739125
5.484,-0.001707494,0.011272252,0.083575523,0.02210509,0.27973743749999996
5.488,-0.001714367,0.011272151,0.083578172,0.022108376953124998,0.27973187499999996
5.492,-0.001712624,0.011271413,0.083577664,0.022107705078124998,0.27973268749999997
5.496,-0.00171135,0.011269904,0.083576391,0.022107572,0.27973375
5.5,-0.001712121,0.011270105,0.083576328,0.022107572,0.279733031
5.504,-0.001712691,0.011271513671874999,0.083577602,0.022107738281249997,0.279732969
5.508,-0.001712624,0.011270944,0.083577703,0.022108443,0.279733594
5.512,-0.001713127,0.011269637,0.0835775,0.022108710937499998,0.27973375
5.516,-0.001715206,0.011271111,0.083577633,0.022108376953124998,0.279732375
5.52,-0.001715273,0.011270877,0.0835775,0.022109716796874998,0.279731906
5.524,-0.001715507,0.011268999,0.08357693,0.022109047,0.279731969
5.528,-0.001715474,0.011268965820312499,0.083576461,0.022108107,0.279732281
5.532,-0.001712624,0.01126749,0.083574648,0.022106230468749998,0.279734875
5.536,-0.001709472,0.011266484,0.083572438,0.022104117187499998,0.279737031
5.54,-0.001716614,0.011265546,0.083574414,0.022107303,0.279731406
5.544,-0.001716681,0.011266216796874999,0.083575422,0.022107773,0.27973128124999996
5.548,-0.001715407,0.011265043,0.083574781,0.022107203,0.27973275
5.552,-0.00171373,0.011264205078124999,0.083574578,0.0221066,0.279734156
5.556,-0.001713261,0.011263367,0.083573875,0.022106531,0.27973424999999996
5.56,-0.00171373,0.011262663,0.083573039,0.022105828124999997,0.279733469
5.564,-0.001712825,0.011262797,0.083571563,0.022104957,0.279733781
5.568,-0.001714032,0.01126159,0.083570891,0.022105158,0.27973290624999997
5.572,-0.001714434,0.011260785,0.083570555,0.022104285,0.279733156
5.576,-0.001714904,0.011260282,0.083570461,0.022103883,0.279732969
5.58,-0.00171534,0.01126035,0.083570391,0.022105158,0.279732781
5.584,-0.001716278,0.011260450195312499,0.083571164,0.022105627,0.27973253124999997
5.588,-0.001716647,0.011260014,0.083571195,0.022105158,0.279732375
5.592,-0.001713999,0.011258673,0.083569719,0.022102877,0.279734156
5.596,-0.001715239,0.011258539,0.083568852,0.022102709,0.279732969
5.6,-0.001714803,0.011259712,0.083568008,0.022102105468749998,0.27973284374999996
5.604,-0.001717854,0.011259712,0.08356982,0.022104285,0.279730563
5.608,-0.001715105,0.011259276,0.083569383,0.02210385,0.279733156
5.612,-0.001713831,0.011257533,0.083568344,0.02210318,0.279734594
5.616,-0.00171477,0.011257332,0.083568211,0.022103246093749997,0.279733438
5.62,-0.001715507,0.011257936,0.08356818,0.022103279,0.279732656
5.624,-0.001716144,0.011257499,0.083567508,0.022102307,0.27973193749999997
5.628,-0.001714937,0.011256158,0.083565969,0.022100598,0.279733344
5.632,-0.001716446,0.011255521,0.08356593,0.022100664,0.279732781
5.636,-0.001716513,0.011254684,0.083565766,0.022100027,0.279732719
5.64,-0.001717485,0.011253375976562499,0.083566805,0.022100765624999998,0.279731813
5.644,-0.001715004,0.011251767,0.083565594,0.022100060546874998,0.279733844
5.648,-0.001716916,0.011250726562499999,0.083565633,0.022100865,0.279733469
5.652,-0.001719933,0.011249788,0.083566367,0.022101369,0.279732031
5.656,-0.001719229,0.011248111,0.083565492,0.022101805,0.279732344
5.66,-0.001720402,0.011250123,0.083566367,0.022102507812499998,0.27973106249999996
5.664,-0.001721308,0.011252537,0.083567906,0.02210318,0.279730281
5.668,-0.001720704,0.011254448,0.083568516,0.022102105468749998,0.279731469
5.672,-0.001719095,0.011253342,0.083567305,0.022100463,0.279733313
5.676,-0.001720469,0.011252403,0.083567039,0.022100195312499998,0.27973175
5.68,-0.001721777,0.011252839,0.083566734,0.022101537,0.27972993749999997
5.684,-0.001721207,0.011252403,0.083566336,0.022099994,0.27973075
5.688,-0.001721375,0.011251062499999999,0.0835665,0.022098753906249997,0.27973149999999997
5.692,-0.001718659,0.011249217773437499,0.083564828,0.022097177734374997,0.27973349999999997
5.696,-0.001721844,0.011248581,0.08356543,0.022099893,0.279730969
5.7,-0.001723856,0.011250693,0.083567242,0.022103615,0.27972874999999997
5.704,-0.001720771,0.011251565429687499,0.083566031,0.022101099609374997,0.279731156
5.708,-0.001719564,0.011252034,0.083565164,0.022099054687499998,0.27973275
5.712,-0.001720838,0.011249956,0.08356493,0.022099658,0.279732594
5.716,-0.001720201,0.01124895,0.083565359,0.022101469,0.27973268749999997
5.72,-0.001717687,0.011250392,0.083565094,0.022102006,0.279733969
5.724,-0.001716815,0.011249654,0.083562609,0.022099156249999998,0.279734875
5.728,-0.001720436,0.011247643,0.08356157,0.022099928,0.27973275
5.732,-0.001720771,0.011247341,0.083561844,0.022099826,0.279732375
5.736,-0.00172057,0.011248815,0.083560633,0.022098486,0.279731813
5.74,-0.001718089,0.011249285,0.08355782,0.022096708984374998,0.27973328124999997
5.744,-0.001715675,0.011247039,0.083555234,0.022095367,0.279735688
5.748,-0.001723688,0.011246904296874999,0.083557953,0.022099658,0.279730188
5.752,-0.00172285,0.011247542,0.08355943,0.02209825,0.279730875
5.756,-0.00172409,0.01124781,0.083558961,0.022097514,0.279729844
5.76,-0.001725633,0.011248782,0.083558555,0.022098486,0.279728375
5.764,-0.001723621,0.011248883,0.083557117,0.022098352,0.279730063
5.768,-0.001725197,0.011247944,0.083557148,0.02209882,0.279729563
5.772,-0.001729321,0.011247273,0.083557852,0.022099624999999998,0.27972690624999996
5.776,-0.001732305,0.011249353,0.083558422,0.022101234,0.279724594
5.78,-0.001736865,0.011253040039062499,0.083560805,0.02210375,0.279720906
5.784,-0.001742665,0.011255957,0.083563555,0.022105861,0.279716563
5.788,-0.00175051,0.011259042,0.083567102,0.022109918,0.279711125
5.792,-0.001756378,0.011263568,0.083570523,0.02211374,0.27970643749999996
5.796,-0.001759697,0.011264473632812499,0.083571695,0.022116725,0.279703781
5.8,-0.001764089,0.011266149,0.083575016,0.022121283203124998,0.279699719
5.804,-0.001762446,0.011267424,0.083574984,0.022120715,0.279700969
5.808,-0.001759328,0.01126682,0.083573977,0.022118469,0.279703719
5.812,-0.001761843,0.011264876,0.083572906,0.022117428,0.27970234374999997
5.816,-0.001763016,0.011263803,0.083572031,0.022117127,0.27970028124999996
5.82,-0.00175859,0.011263467773437499,0.083569453,0.022115518,0.27970325
5.824,-0.001759563,0.011262025,0.083568078,0.022114779296874998,0.27970271874999997
5.828,-0.001764458,0.011260382812499999,0.083567609,0.022115115,0.27969968749999996
5.832,-0.001764357,0.011259376953124999,0.083567203,0.022114208984374998,0.279699344
5.836,-0.001762513,0.011258404,0.083565531,0.022113572,0.279700375
5.84,-0.001766771,0.011258907,0.083565633,0.022115082,0.279697
5.844,-0.001771901,0.011261489,0.083567711,0.022117596,0.279692656
5.848,-0.001778472,0.011264071,0.083570992,0.022119475,0.279687844
5.852,-0.00177921,0.011266954101562499,0.083572367,0.022119541015624997,0.279686531
5.856,-0.001772035,0.011265312,0.083569219,0.022117060546874998,0.279691875
5.86,-0.001770526,0.011263131835937499,0.083567773,0.022117428,0.279692594
5.864,-0.001773343,0.011262394531249999,0.083567742,0.022117629,0.27969056249999996
5.868,-0.001774952,0.011262093,0.083567844,0.022117428,0.279689906
5.872,-0.001776092,0.011261221,0.083566836,0.022116457031249998,0.279689156
5.876,-0.001775488,0.011261724,0.08356493,0.022113908203124998,0.27968884374999997
5.88,-0.001773477,0.01126102,0.083563719,0.0221126,0.279689563
5.884,-0.001773879,0.011259511,0.083563352,0.022113037,0.279689313
5.888,-0.001772806,0.011257332,0.083561805,0.022111561,0.27969099999999997
5.892,-0.001776058,0.011256594,0.083562414,0.022113002,0.279688813
5.896,-0.001774147,0.011256191,0.083562141,0.022114143,0.279689906
5.9,-0.001774482,0.011255655,0.083561469,0.02211441,0.27968937499999996
5.904,-0.001774684,0.011255119140624999,0.083561469,0.022113842,0.279689125
5.908,-0.001772169,0.011255320312499999,0.083559695,0.022113271,0.279691406
5.912,-0.001777735,0.011256359,0.08356057,0.022115686,0.2796875
5.916,-0.001774751,0.011255253,0.083559125,0.022114176,0.279689156
5.92,-0.001772638,0.01125351,0.083556781,0.022112767578124998,0.279690344
5.924,-0.001774315,0.011254649,0.083557078,0.022113002,0.27968899999999997
5.928,-0.001774751,0.011253577148437499,0.083556977,0.022111561,0.279689156
5.932,-0.001778707,0.01125408,0.083558555,0.022114244,0.279686063
5.936,-0.001783401,0.011257197,0.083561172,0.022117764,0.279681719
5.94,-0.001785312,0.011258203,0.083560336,0.022118937499999998,0.279680219
5.944,-0.001790274,0.011259108,0.083561508,0.02212058,0.279676844
5.948,-0.001797114,0.011262763671874999,0.083564523,0.022124502,0.279672219
5.952,-0.001799326,0.011264172,0.083566336,0.022127050781249998,0.279670625
5.956,-0.001798321,0.011264842,0.083565664,0.022125945,0.279671281
5.96,-0.001800064,0.01126682,0.083565258,0.022126414,0.279669281
5.964,-0.001799628,0.011268061,0.083564555,0.022125508,0.279669031
5.968,-0.001797818,0.011267088,0.08356332,0.022122892578124997,0.27967156249999997
5.972,-0.001801908,0.011267088,0.083564156,0.022124502,0.27966912499999996
5.976,-0.001802478,0.011268329,0.083564492,0.022125342,0.279668344
5.98,-0.001802009,0.011265546,0.083563078,0.022125408,0.279668656
5.984,-0.001806099,0.011263735,0.083564055,0.022127152343749998,0.279665313
5.988,-0.001806468,0.011264104,0.083565125,0.022127318,0.279665438
5.992,-0.001804356,0.011263367,0.08356375,0.022124369,0.279667094
5.996,-0.001809854,0.011263634765624999,0.083564422,0.022125508,0.279663156
6,-0.001812737,0.011264675,0.083566102,0.022127621093749997,0.27966043749999997
6.004,-0.00181381,0.011265379,0.083567906,0.022128426,0.27965975
6.008,-0.001807876,0.011262931,0.083564828,0.02212467,0.27966481249999997
6.012,-0.001809787,0.011261557,0.083563922,0.022123294921874998,0.279663656
6.016,-0.001809049,0.011260551,0.083562516,0.022121886718749997,0.279663969
6.02,-0.001805864,0.011258002,0.083559156,0.022119709,0.279666344
6.024,-0.001804188,0.011255789062499999,0.083556648,0.022118400390624997,0.279667656
6.028,-0.001803786,0.011254951,0.083555539,0.022116893,0.279668219
6.032,-0.001805764,0.011254415,0.083555773,0.022116959,0.279667094
6.036,-0.001805764,0.01125408,0.083555742,0.022117463,0.279666656
6.04,-0.00180221,0.011254013,0.083554938,0.022117428,0.27966925
6.044,-0.001798555,0.011252169,0.083552352,0.022115854,0.279672563
6.048,-0.001801774,0.011250459,0.083551047,0.022113941,0.279670281
6.052,-0.001798723,0.011250392,0.083550008,0.022111427734374998,0.279672219
6.056,-0.001792017,0.011249386,0.083547891,0.022108309,0.27967749999999997
6.06,-0.001798723,0.011247709,0.083548562,0.022112365,0.279672719
6.064,-0.001798589,0.011247877,0.083547625,0.022113337890624998,0.279672469
6.068,-0.001797885,0.011246502,0.083546516,0.022110890624999997,0.279673438
6.072,-0.001796611,0.011246134,0.083545445,0.022108645,0.279674875
6.076,-0.001795974,0.011247105,0.08354407,0.022108008,0.27967506249999996
6.08,-0.001798153,0.011248044921874999,0.083544172,0.022110053,0.279673219
6.084,-0.001795068,0.011248212,0.083543672,0.022110221,0.27967565624999996
6.088,-0.001790341,0.011246301,0.083542828,0.022108912,0.279679469
6.092,-0.001790643,0.011244558,0.083541656,0.022107134765624998,0.27968009374999997
6.096,-0.001793459,0.011244356,0.083542297,0.02210908,0.279677531
6.1,-0.001794029,0.011244793,0.083542461,0.022109984,0.279676875
6.104,-0.001796108,0.011244256,0.083543836,0.022111191406249998,0.279675094
6.108,-0.001797616,0.011245362,0.083544742,0.022111125,0.279674844
6.112,-0.001804926,0.011248782,0.083548062,0.022113773437499998,0.279670219
6.116,-0.001809552,0.011252974,0.083549641,0.022114611,0.279666813
6.12,-0.001814514,0.011255689,0.083552289,0.022117865,0.279662875
6.124,-0.001820047,0.01125941,0.083556711,0.022121988281249998,0.279658469
6.128,-0.001821891,0.011262663,0.083558789,0.022123396,0.279657781
6.132,-0.001827456,0.011264238,0.083560805,0.022125342,0.27965375
6.136,-0.001831513,0.011267055,0.083564055,0.022129666,0.279649781
6.14,-0.001832385,0.011268496,0.083563984,0.022130303,0.27964893749999997
6.144,-0.001838084,0.01126967,0.083566773,0.022133287,0.279644188
6.148,-0.001838353,0.011269637,0.083568414,0.022134461,0.279644
6.152,-0.001840498,0.011269502,0.083570227,0.022136673828124998,0.279642375
6.156,-0.001841974,0.011271179,0.083570961,0.022136908,0.27964093749999996
6.16,-0.001840968,0.011271916,0.083569555,0.022136136718749998,0.27964131249999996
6.164,-0.001845997,0.01127319,0.083570797,0.022138082,0.279637344
6.168,-0.001850221,0.011275168945312499,0.083572969,0.022139658,0.279634313
6.172,-0.001850825,0.011273592773437499,0.08357207,0.022139088,0.279634
6.176,-0.001851797,0.011273626,0.083571563,0.022139422,0.27963299999999996
6.18,-0.001855116,0.011275974,0.083572539,0.022140932,0.27962987499999997
6.184,-0.001855753,0.011276477,0.083572266,0.022141568,0.279629375
6.188,-0.001860045,0.011274968,0.0835725,0.022142439,0.279626313
6.192,-0.00185629,0.011272956,0.083571195,0.022140094,0.279629313
6.196,-0.001859005,0.011272352539062499,0.083571195,0.022140898,0.279627125
6.2,-0.001857396,0.011272285156249999,0.083570055,0.022139992,0.27962765624999997
6.204,-0.001855452,0.011272285156249999,0.083568711,0.02213768,0.279628969
6.208,-0.001857094,0.011272519531249999,0.083567641,0.022136203,0.279627938
6.212,-0.001855385,0.011270743,0.083565359,0.022133689453124997,0.279628656
6.216,-0.001851898,0.011267691406249999,0.083562242,0.022131008,0.279631156
6.22,-0.001852032,0.011266418,0.083560336,0.022130002,0.279630875
6.224,-0.001851931,0.011265479,0.083559562,0.022130705,0.27963062499999997
6.228,-0.001851194,0.011262964843749999,0.083558156,0.022129969,0.279631156
6.232,-0.001849752,0.011262628906249999,0.083557719,0.022127486328124998,0.279631969
6.236,-0.001848746,0.011263065,0.083556406,0.022128158203124998,0.27963278124999996
6.24,-0.001854915,0.011264205078124999,0.08355782,0.022132548828124998,0.279627844
6.244,-0.001855988,0.011265479,0.083558656,0.022132582,0.27962668749999997
6.248,-0.00185515,0.011266149,0.083559531,0.02213275,0.279626938
6.252,-0.001854815,0.011263367,0.083559898,0.022132214843749998,0.279627156
6.256,-0.001856122,0.011263769531249999,0.083560398,0.022131945312499998,0.279625688
6.26,-0.001854714,0.01126454,0.083558891,0.022130738,0.279626188
6.264,-0.001857061,0.011263803,0.083558156,0.022130605468749998,0.279624219
6.268,-0.001863465,0.011263131835937499,0.083560266,0.022133422,0.279619563
6.272,-0.001863934,0.011263534,0.083559625,0.022132014,0.27961971874999997
6.276,-0.001864873,0.011264607,0.083559961,0.022131576,0.279618781
6.28,-0.001864437,0.011265244,0.083560102,0.022131744,0.2796185
6.284,-0.001864001,0.011265178,0.083560266,0.022131375,0.27961906249999996
6.288,-0.001869801,0.011265982,0.083560969,0.022132582,0.279614719
6.292,-0.001870271,0.011267658,0.083560766,0.022131777,0.279614
6.296,-0.001868393,0.011268329,0.083560133,0.022131342,0.279614844
6.3,-0.00186846,0.011267759,0.083559766,0.022131678,0.279614719
6.304,-0.001867488,0.011266753,0.083558555,0.022132548828124998,0.279615594
6.308,-0.001872014,0.011266049,0.083559727,0.022134494,0.279612875
6.312,-0.001873657,0.011266585,0.083561336,0.022134226562499998,0.27961193749999996
6.316,-0.001874831,0.011266921,0.083561672,0.022134461,0.27961081249999997
6.32,-0.00187587,0.011265948242187499,0.08356,0.022134863,0.279609125
6.324,-0.001878016,0.011266383789062499,0.083560164,0.022135701171874998,0.27960718749999997
6.328,-0.001879625,0.011265412,0.083560234,0.0221356,0.27960643749999997
6.332,-0.001883816,0.011264809,0.083561102,0.022136773,0.27960375
6.336,-0.001885761,0.011266418,0.083561641,0.022136473,0.27960221874999996
6.34,-0.0018868,0.011268295,0.083561711,0.022136941,0.279600938
6.344,-0.001893271,0.011270173,0.083564023,0.022140563,0.27959628124999997
6.348,-0.001899306,0.011273660156249999,0.083567344,0.022143916015624997,0.279591563
6.352,-0.00190239,0.011276376,0.08356925,0.022146093749999998,0.279589219
6.356,-0.001904603,0.011277817,0.083569656,0.022146697265624998,0.27958715624999997
6.36,-0.00191322,0.011278789062499999,0.083571531,0.022149984374999997,0.279579656
6.364,-0.001918148,0.011280801,0.083574313,0.022153168,0.27957581249999996
6.368,-0.001921535,0.011282075,0.083574914,0.022152834,0.279573781
6.372,-0.001926161,0.011283048,0.08357643,0.022154945,0.279570531
6.376,-0.001933236,0.011286099,0.083578937,0.02215783,0.279564563
6.38,-0.001936689,0.011289082,0.083580352,0.022160042968749998,0.27956090624999996
6.384,-0.001942221,0.011291966,0.083582859,0.022162055,0.279556563
6.388,-0.001945071,0.011292368,0.083583938,0.022162121,0.279554281
6.392,-0.001952078,0.011292737,0.083586117,0.022164938,0.279549375
6.396,-0.0019616,0.011294983,0.083588664,0.022169162109374998,0.279541781
6.4,-0.001966562,0.011297833007812499,0.08358957,0.022170838,0.279536844
6.404,-0.001972463,0.011301957031249999,0.083590609,0.022172179687499998,0.2795315
6.408,-0.001980443,0.011304673,0.083592789,0.022174426,0.279525531
6.412,-0.001988322,0.011306214843749999,0.083596539,0.022178248046874998,0.279519531
6.416,-0.001994289,0.011307758,0.083598719,0.022180227,0.279514781
6.42,-0.002000827,0.011309836,0.083600094,0.022182304687499998,0.279509813
6.424,-0.002007164,0.011312686,0.083602445,0.022184852,0.279504594
6.428,-0.002012696,0.011313791992187499,0.083605055,0.022186764,0.27950053124999996
6.432,-0.002020072,0.011315904,0.083607437,0.022189445,0.27949503124999997
6.436,-0.002029561,0.011317715,0.083609883,0.022193168,0.279487219
6.44,-0.00203241,0.011318654,0.083609922,0.022193234,0.279484094
6.444,-0.002038445,0.011320531,0.083610289,0.022194643,0.279479438
6.448,-0.00204381,0.011321839,0.083610992,0.022195715,0.27947493749999996
6.452,-0.002047162,0.011321067,0.083610992,0.022195715,0.279472375
6.456,-0.002054036,0.011321303,0.083613203,0.022198398,0.279466719
6.46,-0.002059735,0.011323314,0.083614414,0.022199672,0.279461938
6.464,-0.002063021,0.011322979,0.083613813,0.022199236,0.279459125
6.468,-0.002063256,0.011320967,0.083611359,0.022195547,0.279458563
6.472,-0.00206225,0.011317212,0.08360757,0.022191525390624998,0.279459
6.476,-0.002060104,0.011315502,0.083604922,0.022189111,0.27945965624999997
6.48,-0.002055544,0.011310507,0.083600469,0.022186295,0.27946321874999996
6.484,-0.002055477,0.011305611,0.083596539,0.022184584,0.2794635
6.488,-0.002052896,0.011300883789062499,0.083591383,0.022179789,0.27946575
6.492,-0.002055846,0.011298806,0.083588734,0.022176639,0.279463844
6.496,-0.002066709,0.011301253,0.083589938,0.022177979,0.279454875
6.5,-0.002072845,0.011304069,0.083591008,0.022179421874999997,0.27944956249999997
6.504,-0.00207831,0.011306383,0.083592656,0.022181433593749997,0.279445469
6.508,-0.002084278,0.011308093,0.083594094,0.022181031,0.279441688
6.512,-0.00208867,0.011308763,0.083595031,0.022181232,0.279438031
6.516,-0.002096146,0.011310271484374999,0.08359718,0.022184551,0.27943281249999996
6.52,-0.002103154,0.011311345,0.083599563,0.022187869,0.279426313
6.524,-0.002106909,0.011311814,0.083599625,0.022187535,0.279423188
6.528,-0.00211177,0.011312920898437499,0.08359993,0.022187199,0.279420188
6.532,-0.002117135,0.011312987,0.083600195,0.022186596,0.27941596874999997
6.536,-0.00212099,0.011314697,0.083601234,0.022187333984374998,0.279412063
6.54,-0.002128635,0.011315838,0.08360325,0.022191189,0.27940646874999997
6.544,-0.00213363,0.011316542,0.083604891,0.022195145,0.279401625
