time,F8,F4,Fz,F3,F7
0,0.017164998046874998,0.019636453124999998,0.056524906,0.016275979,0.014639630859374999
0.004,0.017165902,0.019636855,0.056530203,0.016276181,0.014639296
0.008,0.01716768,0.0196389,0.056528059,0.016275912,0.014640268
0.012,0.017167947,0.019640107,0.056522125,0.016275477,0.014640536
0.016,0.017167580078124998,0.019640072,0.056521219,0.016275577148437498,0.014639296
0.02,0.017168919921874998,0.019639637,0.056526316,0.016274638671874998,0.014636513
0.024,0.017169088,0.019639469,0.056531379,0.016274236,0.01463601
0.028,0.017169189,0.019640576,0.056529835937499995,0.016275443,0.014637048828124999
0.032,0.017169725,0.019640744,0.056524035,0.016274337,0.014636177734374999
0.036,0.01717043,0.019639906,0.056522390624999995,0.016273398,0.014634032
0.04,0.017169994,0.01963967,0.05652759,0.0162738,0.01463316
0.044,0.017172877,0.019642152,0.056533523,0.016275376,0.014633897
0.048,0.017176297,0.019644633,0.056532113,0.016275275,0.014633831
0.052,0.017175895,0.019642119,0.056525344,0.016274135742187498,0.014632523
0.056,0.017175123,0.019640006,0.056523332,0.016274102,0.014631886
0.06,0.017173883,0.01964024,0.05652759,0.016275309,0.01463192
0.064,0.017174453,0.01964024,0.056531847656249995,0.016275946,0.014632222
0.068,0.017172976562499997,0.019640273437499998,0.056529499999999996,0.016275577148437498,0.014631483398437499
0.072,0.017172775,0.019641348,0.056524973,0.016275141601562498,0.014633261
0.076,0.017173145,0.019642285156249998,0.056525777,0.016275745,0.014635272
0.08,0.017172373046874998,0.019640342,0.056530773437499994,0.016275979,0.014635742
0.084,0.017171838,0.019638967,0.056535332031249996,0.016276616,0.014637586
0.088,0.0171711,0.019639,0.056532886718749994,0.016277053,0.014636915
0.092,0.017171268,0.019638832031249998,0.056527285156249996,0.016276684,0.014635909
0.096,0.017171268,0.019638363281249998,0.05652541,0.016276047,0.014634267
0.1,0.017171871,0.019637994,0.056530707031249995,0.016275409,0.014633897
0.104,0.017173447,0.019638531,0.056535734,0.016275778,0.014634601562499999
0.108,0.017173883,0.019638933593749998,0.056533691406249996,0.016276012695312498,0.014634098632812498
0.112,0.017173178,0.019638297,0.056528125,0.016275509765624998,0.014634937499999999
0.116,0.017172207,0.019637559,0.056526816,0.016275006835937498,0.014634837
0.12,0.017172105,0.019636654,0.056531879,0.016275006835937498,0.0146344
0.124,0.017172072265624998,0.019637056640624997,0.056536406,0.016275409,0.014634535
0.128,0.017171535,0.019637391,0.056534059,0.016275678,0.014634870117187499
0.132,0.017170631,0.019637258,0.056527453124999995,0.01627561,0.014635909
0.136,0.017169424,0.019636385,0.056525008,0.016275107,0.014635205
0.14,0.017167982,0.019635412,0.056529063,0.016274974,0.014634267
0.144,0.017168919921874998,0.019634809,0.056532652343749996,0.016275544,0.014634468
0.148,0.01716825,0.019633904296874997,0.056529098,0.016275577148437498,0.014635674804687498
0.152,0.017167814,0.019633199218749998,0.056522055,0.016274906,0.014635474
0.156,0.017166607,0.019631724609374998,0.05651991,0.0162739,0.014633562499999999
0.16,0.017164328,0.019629712890624998,0.056524305,0.016272861,0.014631986328124999
0.164,0.017162752,0.01962817,0.056528257812499996,0.016272225,0.014632791015624999
0.168,0.017160941406249998,0.019627232421874998,0.05652541,0.016272057,0.014634032
0.172,0.017158527,0.019626361328124998,0.056518805,0.016272124,0.014635205
0.176,0.017156012,0.019624182,0.05651609,0.016270917,0.014634098632812498
0.18,0.017155609,0.019622503906249998,0.056519574,0.016270079101562498,0.014633193
0.184,0.01715484,0.019621969,0.056522859,0.016269476,0.014633026
0.188,0.017153129,0.019621699,0.056519977,0.016269005859374998,0.014632925781249998
0.192,0.017152291015624998,0.019620359,0.056513507812499995,0.016268905,0.014632624023437499
0.196,0.017150045,0.019618279,0.056512066,0.016268737,0.014631550781249999
0.2,0.017148132812499998,0.019616906,0.056517867187499994,0.016269073242187498,0.014630243164062499
0.204,0.017146994,0.019616973,0.056522695312499996,0.01627028,0.014631651
0.208,0.017145887,0.019616570312499998,0.056520312499999996,0.016270146,0.014633261
0.212,0.017143607,0.019616168,0.056513609374999996,0.016269811,0.014634434570312499
0.216,0.017141965,0.01961533,0.056512367187499996,0.016269677,0.014634334
0.22,0.017141797,0.019615666015624998,0.05651827,0.016270481,0.014635272
0.224,0.017141896,0.019616168,0.056522293,0.016270950195312498,0.014636513
0.228,0.017141092,0.019615027,0.056520113,0.016270783,0.014634501
0.232,0.017140724609374998,0.019614861,0.056515687499999995,0.016271151,0.014632389
0.236,0.017140791,0.019614592,0.056514848,0.016270648,0.014632255
0.24,0.017140623046874998,0.019614459,0.056519844,0.016270079101562498,0.014631550781249999
0.244,0.017139785,0.019613385,0.056522660156249994,0.016270045,0.014632791015624999
0.248,0.017140188,0.019614123046874998,0.056519945,0.016270045,0.014632992187499999
0.252,0.017141127,0.019614189,0.056512433593749994,0.016269174,0.014633059570312499
0.256,0.017142434,0.019613922,0.05651002,0.016269811,0.014632423
0.26,0.017141595703124998,0.019614291,0.056515652,0.016270347,0.014631316406249999
0.264,0.017140523,0.019613855,0.056519141,0.016270582031249998,0.014630746093749999
0.268,0.017142266,0.01961476,0.056516492187499996,0.016271453124999998,0.014631483398437499
0.272,0.017143205078124998,0.019614994140624998,0.056510656,0.016271118,0.014628634
0.276,0.017143271,0.019614525,0.05650925,0.016269811,0.014627394
0.28,0.017144345703124998,0.019615297,0.056514445312499995,0.016269106,0.014626019
0.284,0.017146222656249998,0.019615766,0.056519171874999996,0.016269508789062498,0.014625917968749999
0.288,0.017146556640624998,0.019614727,0.056516258,0.016268101,0.014624979492187499
0.292,0.017145216796874998,0.01961476,0.05651032,0.016268033,0.014624812
0.296,0.017145619,0.019615195,0.056509516,0.016267564453124998,0.014622900390624999
0.3,0.017145316,0.019614793,0.056516023,0.016267832,0.014623772
0.304,0.017144613,0.019614525,0.056520480468749995,0.016268168,0.014624645
0.308,0.017144445,0.019615263671874997,0.056518402343749996,0.016267999999999998,0.014623202148437498
0.312,0.017145652343749998,0.019616269531249998,0.05651391,0.016268201,0.014622666015624999
0.316,0.017146154,0.019616102,0.056513574218749994,0.016268536,0.014623202148437498
0.32,0.017146154,0.019616369,0.056518636718749994,0.016268302,0.014622598632812499
0.324,0.017148,0.019617474609374998,0.056521652,0.016267162,0.014621693
0.328,0.017148469,0.019618113,0.056517832,0.016267061523437498,0.014624041015624999
0.332,0.017147228515624998,0.019617543,0.056510926,0.016266894,0.014626354
0.336,0.017147295,0.019617207,0.056509214843749996,0.016266793,0.014625213867187499
0.34,0.017148132812499998,0.019617945,0.056513105,0.01626686,0.014623739257812499
0.344,0.01714991,0.019617979,0.056516258,0.016266458007812498,0.014622331
0.348,0.017150346,0.019618716796874998,0.056513742,0.016266994140624998,0.014621794
0.352,0.017150346,0.019619152343749998,0.056507539,0.016267564453124998,0.014621995
0.356,0.017150313,0.019618648,0.056506398,0.016267799,0.014621660156249999
0.36,0.017149877,0.019617844,0.056511058593749997,0.016267598,0.014620252
0.364,0.017150781,0.019617877,0.056514313,0.016266726,0.014618776
0.368,0.017150982,0.019617844,0.056510992,0.016266357,0.014620185
0.372,0.017151184,0.01961724,0.056504824,0.016266391,0.014621089843749999
0.376,0.017151453,0.019617140624999998,0.056503882812499996,0.016266122,0.014620385742187499
0.38,0.017152391,0.019617140624999998,0.056508711,0.016266056,0.014619548
0.384,0.017153598,0.019616873,0.056512668,0.01626572,0.014618408203124999
0.388,0.017154201171874998,0.019618179687499997,0.056510253906249995,0.016265955078124998,0.014618006
0.392,0.017153296874999998,0.019618716796874998,0.056504387,0.016265619,0.014617334960937499
0.396,0.017152391,0.019617979,0.056502879,0.016265184,0.014616396484374999
0.4,0.017153498,0.019617039062499998,0.056507304687499996,0.016264681,0.014614955
0.404,0.017154102,0.019617140624999998,0.056510488,0.016264613,0.014615223
0.408,0.017153598,0.019617777,0.056507941,0.016263977,0.014614955
0.412,0.01715323,0.019617979,0.056502308593749995,0.016263607,0.014614485
0.416,0.017153162109374998,0.019617576171874998,0.056500598,0.016263239,0.014613613
0.42,0.017153465,0.019617676,0.056505059,0.01626277,0.014612977
0.424,0.017153531,0.019618078,0.05650975,0.016263373046874998,0.014612775390624999
0.428,0.017152828,0.01961885,0.056508410156249994,0.01626411,0.014614887695312499
0.432,0.017152258,0.019619486328124998,0.056502207031249994,0.016264211,0.014616128
0.436,0.017151922,0.01961875,0.056500598,0.016263943359374998,0.014614184
0.44,0.017151988,0.019617609374999997,0.056505797,0.016264278,0.014613412
0.444,0.017152693,0.019617676,0.05650982,0.016264311523437498,0.014612977
0.448,0.017152357,0.019617912,0.056507640624999994,0.016264311523437498,0.014613814453124999
0.452,0.017152726562499998,0.019618381,0.056502242187499996,0.01626401,0.014614485
0.456,0.017152357,0.019617877,0.056500934,0.016263775,0.014613211
0.46,0.017153029,0.019617174,0.056505594,0.016263607,0.014612138671874999
0.464,0.017154537,0.019616873,0.056509214843749996,0.016264378906249998,0.01461311
0.468,0.017154771484374998,0.019617273,0.056505965,0.016263977,0.014611166
0.472,0.017154402,0.019617309,0.056500332031249996,0.016262904,0.01461073
0.476,0.017152793,0.019616771,0.056499324,0.016262166,0.014611233
0.48,0.017151855468749998,0.019615631,0.056504152343749996,0.016262267,0.014610294
0.484,0.017150648,0.019615363,0.056508645,0.016263104,0.014610328124999999
0.488,0.017150781,0.019616336,0.056506668,0.016263272,0.014610059570312499
0.492,0.017150346,0.019616435546874998,0.056500801,0.016263373046874998,0.014610562499999999
0.496,0.017151117,0.019616303,0.056498855,0.016263038,0.014610294
0.5,0.017152324,0.019616504,0.056502844,0.016261999023437498,0.014608986328124999
0.504,0.017151252,0.019616705078124998,0.056506902,0.0162621,0.014608986328124999
0.508,0.017150849609374998,0.019617107,0.056504891,0.01626116,0.01460721
0.512,0.017149475,0.019615867,0.056499359374999995,0.016260088,0.014605969
0.516,0.017148904,0.019614928,0.056498820312499996,0.016259585,0.014605601
0.52,0.017148469,0.019614492,0.05650348,0.016259349609374998,0.014604527
0.524,0.017149072,0.019614291,0.056504355468749996,0.016258579,0.01460255
0.528,0.017149475,0.019614994140624998,0.056498285156249994,0.016258277,0.014602314
0.532,0.017149072,0.019614592,0.056489199218749994,0.01625774,0.014603521
0.536,0.017149408,0.019613117187499998,0.056483968749999995,0.016257674,0.014604829
0.54,0.017150012,0.019612613,0.056485512,0.016257438,0.014604862304687499
0.544,0.01715048,0.01961248,0.056487121093749995,0.016257573,0.014606908
0.548,0.017151419921874998,0.019612883,0.056481957031249995,0.01625821,0.014607042
0.552,0.017152425781249998,0.019613083984374998,0.056473879,0.016257674,0.014607075
0.556,0.017153096,0.019613117187499998,0.056470691406249995,0.016257137,0.014605164062499999
0.56,0.017153363,0.019612513671874998,0.056473843749999995,0.016257171,0.014604929687499999
0.564,0.017154168,0.019612045,0.056475555,0.016257473,0.014605231
0.568,0.017154471,0.019611943359374998,0.056470324,0.016257438,0.014606271
0.572,0.017154201171874998,0.019611809,0.056462781249999996,0.016256769,0.014604729
0.576,0.017153834,0.019611607,0.056460296874999996,0.016256433,0.014604527
0.58,0.017153967,0.01961134,0.056464152,0.016256298828124998,0.014604595
0.584,0.017153162109374998,0.019610736,0.056466871093749996,0.016256601,0.01460503
0.588,0.017151787,0.019611709,0.056463652,0.016256835,0.014604862304687499
0.592,0.017150714843749998,0.019612211,0.056457215,0.016256332,0.014604796
0.596,0.017150346,0.019611574,0.056455102,0.016254823,0.014603723
0.6,0.017150883,0.019610334,0.05645832,0.016254556,0.014603287
0.604,0.017150849609374998,0.019610199,0.056460602,0.016255092,0.014603723
0.608,0.017150313,0.019610703,0.056457113,0.016255795898437498,0.014604796
0.612,0.017150078,0.01961124,0.056450477,0.016255829,0.014604997070312499
0.616,0.017149574218749998,0.019610871,0.056448027,0.016255662,0.014605332
0.62,0.017148637,0.019610199,0.056451749999999995,0.016255461,0.014604929687499999
0.624,0.017148637,0.019610166,0.056454332,0.016255024,0.014603958007812499
0.628,0.017148535,0.019610166,0.056450710937499995,0.016255225585937498,0.014603556
0.632,0.017147262,0.019610066406249998,0.05644407,0.016254287109374998,0.014604326
0.636,0.017147328,0.019609496093749998,0.056442027,0.016252979,0.014603420898437499
0.64,0.017147126953124998,0.019608859,0.056446753906249994,0.016253314,0.014602415039062499
0.644,0.017148066,0.019608992,0.056450507812499995,0.01625365,0.014602381835937499
0.648,0.01714867,0.019609094,0.056446719,0.016254153,0.014602583
0.652,0.017148033,0.019609229,0.056439578,0.016253851562499998,0.014602717
0.656,0.017146859,0.019607484374999998,0.056438137,0.01625308,0.01460255
0.66,0.017146457,0.019607182,0.056443301,0.016253047,0.014601443359374999
0.664,0.017146457,0.019608490234374998,0.056447624999999994,0.016253684,0.014601711
0.668,0.017146391,0.019609596,0.056443871,0.016254153,0.014603488281249999
0.672,0.017145283,0.019609697,0.056437465,0.016253885,0.014603689453124999
0.676,0.017145283,0.019608893,0.056435152343749996,0.016253784179687498,0.014602248046874999
0.68,0.01714535,0.019607919921874998,0.056439477,0.016254388,0.014600739257812499
0.684,0.017145988,0.019608021484374998,0.056442863,0.016254689,0.014601477
0.688,0.017145586,0.019608791015624998,0.05643968,0.016254556,0.014602482
0.692,0.017144547,0.019608791015624998,0.056434785,0.016254421,0.014603991210937499
0.696,0.017144210937499998,0.019608223,0.056433375,0.016253952,0.014603991210937499
0.7,0.017142803,0.019607418,0.056437133,0.016253784179687498,0.014603019
0.704,0.017142602,0.019607418,0.056440418,0.016254622,0.014602717
0.708,0.01714334,0.019608388671874998,0.056436594,0.016254287109374998,0.014601645
0.712,0.017143305,0.019607986,0.056429688,0.01625365,0.014600739257812499
0.716,0.017142902,0.019607217,0.056428281,0.016252778320312498,0.014600370117187499
0.72,0.017142266,0.019606143,0.056432402,0.016251873,0.014600538
0.724,0.017142535,0.019606545,0.056435758,0.016252710937499998,0.014601812
0.728,0.017143037,0.019607953,0.056433140624999996,0.016253213867187498,0.014602917968749999
0.732,0.017142098,0.019607048828124998,0.056427242,0.016252812,0.01460332
0.736,0.017141025,0.019606512,0.056426066406249996,0.016252443,0.014602784
0.74,0.017140791,0.019605539,0.056430125,0.016251772460937498,0.014601242187499999
0.744,0.017140019531249998,0.019605472656249998,0.056434281249999996,0.016251571,0.014601711
0.748,0.017140322,0.019605641,0.056432335937499994,0.016252108,0.014602349
0.752,0.017139785,0.019606377,0.056426906,0.016251706,0.014601242187499999
0.756,0.017138779,0.019606076,0.05642543,0.016251002,0.014600471
0.76,0.01713908,0.019605439453124998,0.056430125,0.016251103,0.014600001
0.764,0.017140188,0.019605539,0.056434113,0.016251639,0.014599465
0.768,0.017140959,0.019605238,0.056430961,0.016251739257812498,0.014600035
0.772,0.017140758,0.019604602,0.056424559,0.016250766601562498,0.014599029
0.776,0.017139518,0.019603292968749998,0.056423754,0.016249459,0.014597050781249999
0.78,0.017139852,0.019602623,0.056428949218749996,0.016249526,0.014596447
0.784,0.017140959,0.019602857421874998,0.056432871093749996,0.016249861,0.01459695
0.788,0.017141193359374998,0.019603863281249998,0.056429418,0.016250532,0.014599968
0.792,0.017140992,0.019604433593749998,0.056423148,0.016250297851562498,0.014600906
0.796,0.017141193359374998,0.019603395,0.056421977,0.016249794921874998,0.014599196
0.8,0.017141092,0.019601416015624998,0.05642684,0.016249929,0.014599129882812499
0.804,0.017140689,0.019600477,0.056430223,0.016250364,0.014599264
0.808,0.017141058593749998,0.019600477,0.056426805,0.016250331,0.014598626953124999
0.812,0.017141628906249998,0.019601047,0.056420703,0.016249258,0.014597755
0.816,0.017141998,0.019600477,0.056419863281249996,0.016248923,0.014596213
0.82,0.017141695,0.019599873,0.056425160156249994,0.016249091,0.014595843749999999
0.824,0.017142031,0.019599672,0.056429352,0.016249828,0.014596447
0.828,0.017142902,0.019600041,0.05642657,0.016250230468749998,0.014596213
0.832,0.017141695,0.019599672,0.056420668,0.016249861,0.014596112304687499
0.836,0.017141193359374998,0.019598833984374998,0.056420402343749995,0.016249426,0.014595039062499999
0.84,0.017141193359374998,0.019598533,0.056425261718749994,0.016249426,0.014594603515624999
0.844,0.017140455,0.019598666,0.056428684,0.016249493,0.014593094726562499
0.848,0.017140422,0.019599504,0.05642573,0.016250364,0.014595106445312499
0.852,0.017140992,0.019599941406249998,0.056420805,0.016250465,0.014594971679687499
0.856,0.017140422,0.019598465,0.056419496,0.016249459,0.014592357421874999
0.86,0.017139752,0.019596889,0.056424121093749995,0.016249459,0.014591787109374999
0.864,0.017140052734374998,0.019597594,0.056428547,0.016250465,0.014593363281249999
0.868,0.017140623046874998,0.019598699218749998,0.056425766,0.016250432,0.014595374
0.872,0.017140422,0.019599236,0.056419664,0.016250432,0.014596213
0.876,0.017140254,0.019599839843749998,0.056418390624999995,0.016250432,0.014594503
0.88,0.017140758,0.019599873,0.056424054687499996,0.016251438,0.014595006
0.884,0.017141695,0.019599539062499997,0.056427808593749997,0.016252376,0.014595273437499999
0.888,0.017142133,0.01959917,0.05642466,0.016253147,0.014596983
0.892,0.017142938,0.019598533,0.056419058593749995,0.016253213867187498,0.01459856
0.896,0.017143205078124998,0.0195986,0.056418019531249995,0.016253047,0.014597688
0.9,0.017142266,0.0195986,0.056422648,0.016253382,0.014597654
0.904,0.017143541,0.019599705078124998,0.056425261718749994,0.016253918,0.01459695
0.908,0.017144445,0.019600443,0.056422144531249996,0.016254455,0.014597553710937499
0.912,0.017143707,0.019600710937499998,0.056417851562499996,0.016254488,0.014598225
0.916,0.017141595703124998,0.019600275390624998,0.056418625,0.016254823,0.014598291015624999
0.92,0.01713992,0.019599839843749998,0.056424156249999996,0.016254790039062498,0.014597352539062499
0.924,0.017140523,0.019600008,0.056427808593749997,0.016255494,0.014597386
0.928,0.017140791,0.019601047,0.05642409,0.016255728515624998,0.014597151
0.932,0.017141662,0.019600879,0.056418121093749996,0.016255192,0.014597855468749999
0.936,0.017141092,0.019599705078124998,0.056417449,0.016254656,0.014597219
0.94,0.017140455,0.019598833984374998,0.056422949,0.016254488,0.014596916992187499
0.944,0.017141563,0.019598633,0.056427508,0.016254790039062498,0.014597219
0.948,0.017141965,0.019599035,0.056424961,0.016255360351562498,0.01459695
0.952,0.017140891,0.019599035,0.056420300781249995,0.016254891,0.014597252
0.956,0.017140926,0.019599102,0.056420066,0.016254053,0.014595977539062499
0.96,0.017141461,0.019599504,0.056425464843749995,0.016253616,0.014595374
0.964,0.017141092,0.019600410156249998,0.056429117187499996,0.016253314,0.014595676
0.968,0.017140322,0.019600176,0.056426167968749996,0.016253047,0.01459571
0.972,0.017139684,0.019600107,0.056420805,0.01625194,0.014594503
0.976,0.017138779,0.019599404296874998,0.056420871,0.0162507,0.014594603515624999
0.98,0.017137672,0.019598365234374998,0.056426738,0.016251035,0.01459571
0.984,0.017137404,0.019598833984374998,0.056431934,0.016252008,0.014595944
0.988,0.01713717,0.019600275390624998,0.056430023,0.016252879,0.014596012
0.992,0.01713774,0.019600845703124998,0.056424492187499994,0.01625251,0.014594637
0.996,0.017137572265624998,0.01960051,0.056423922,0.016251873,0.014592826
1,0.017137136718749998,0.019599539062499997,0.056430191406249997,0.016251873,0.01459343
1.004,0.017136533,0.019598867,0.056435723,0.016252074,0.014592458
1.008,0.017135896,0.019598968749999997,0.056434883,0.016252710937499998,0.014593363281249999
1.012,0.017136130859374998,0.019598968749999997,0.056430863,0.016253181,0.014594637
1.016,0.017137068,0.019598968749999997,0.056430695312499994,0.016253181,0.014594837890624998
1.02,0.017136867187499998,0.019599102,0.056436426,0.016253918,0.014594436
1.024,0.017136533,0.019599773,0.056441488,0.016254891,0.014595408
1.028,0.017136936,0.019600845703124998,0.056440016,0.016255494,0.014595106445312499
1.032,0.017136867187499998,0.019600544921874997,0.056435789,0.016255225585937498,0.014596112304687499
1.036,0.017135828,0.019599605,0.056436023437499996,0.016254354492187498,0.014595072
1.04,0.017135762,0.019599438,0.056441488,0.016254153,0.014593597656249999
1.044,0.017135795,0.019599839843749998,0.056445246,0.016254388,0.014592491
1.048,0.017134891,0.019599941406249998,0.056443301,0.016254254,0.014592659
1.052,0.017134723,0.019600242,0.05643834,0.016254521,0.014595006
1.056,0.017134654,0.019599137,0.05643834,0.016255326,0.014595408
1.06,0.017135158,0.019598666,0.056444039,0.016256467,0.014595408
1.064,0.01713566,0.01959917,0.056448363,0.016257237304687498,0.014596414062499998
1.068,0.017136063,0.019600041,0.056446352,0.016257304687499998,0.014596849609374999
1.072,0.017136431640624998,0.019599941406249998,0.056442094,0.016257271,0.014596716
1.076,0.01713593,0.019599504,0.05644159,0.016256298828124998,0.014593564
1.08,0.017135594,0.019598699218749998,0.056446887,0.016255125,0.014593329
1.084,0.017136398,0.019598365234374998,0.056451883,0.016255527,0.014595039062499999
1.088,0.017138344,0.019599068,0.056449300781249996,0.016256165,0.014596682
1.092,0.017139115,0.019599371093749998,0.056444441,0.016256533,0.014596849609374999
1.096,0.017138512,0.019598029,0.05644434,0.016256231445312498,0.014596615234374999
1.1,0.017138611,0.019597359374999998,0.056449066,0.016255662,0.014595609374999999
1.104,0.017139046874999998,0.019597861,0.05645282,0.016255829,0.014594704
1.108,0.017139752,0.019598867,0.056449839843749995,0.016256634,0.014596480468749999
1.112,0.017139752,0.019598432,0.056444441,0.016256131,0.014597386
1.116,0.017140019531249998,0.019597895,0.056443938,0.016254656,0.014597219
1.12,0.017140188,0.019596588,0.056449504,0.016254656,0.014597118164062499
1.124,0.017139986,0.019595549,0.056453593749999996,0.016254823,0.014595474609374999
1.128,0.017140086,0.019596855,0.056450645,0.016255394,0.014595207
1.132,0.017139248,0.019596855,0.056445445312499995,0.01625603,0.014595843749999999
1.136,0.017138109,0.019596687499999998,0.056445043,0.016255562,0.014596983
1.14,0.017137338,0.019596486,0.056449738281249995,0.016254388,0.014594837890624998
1.144,0.017137338,0.019596285,0.056452621093749995,0.016254757,0.014593564
1.148,0.017137236,0.019596186,0.056449602,0.016254556,0.014593530273437499
1.152,0.017137773,0.019595615,0.056443969,0.016253716796874998,0.014592994
1.156,0.017137068,0.019594074,0.056444136718749996,0.016253616,0.014593698
1.16,0.017135695312499998,0.019591459,0.056448867187499994,0.016252544,0.014592424
1.164,0.017133012,0.019590150390624998,0.056451113,0.016252979,0.014592961
1.168,0.017130666,0.019589748046874998,0.056447895,0.016253616,0.014593263
1.172,0.017129559,0.01958948,0.056442527,0.016253716796874998,0.014593530273437499
1.176,0.017127547,0.019588406,0.056442262,0.016253314,0.014592591796874999
1.18,0.01712567,0.019587267578124998,0.056447258,0.016253147,0.014590949
1.184,0.017125268,0.019586697265624998,0.056450375,0.016252879,0.014590245
1.188,0.017124429687499998,0.019586126953124998,0.056445949,0.016252175,0.014590178
1.192,0.017124094,0.019584953,0.056439343749999996,0.01625194,0.014590713867187499
1.196,0.017122417968749998,0.019583210937499998,0.056439008,0.01625194,0.014590379
1.2,0.017119937499999998,0.019580797,0.056443734,0.016251103,0.014589139
1.204,0.017118226562499998,0.019580058593749998,0.056446453,0.016251538,0.014589642
1.208,0.017116518,0.019579824,0.056441624999999995,0.016251505,0.014590748
1.212,0.017114304687499998,0.019579052734374998,0.056435188,0.016251269531249998,0.014590748
1.216,0.017113266,0.019577711,0.056435121,0.016250800781249998,0.014590814
1.22,0.017113936,0.019576773,0.056440316406249996,0.01625013,0.014589473632812499
1.224,0.017113701,0.019576404,0.056443234,0.016249627,0.014590748
1.228,0.017112594,0.01957674,0.056439879,0.016250398,0.014592894
1.232,0.017111621093749998,0.019576975,0.056434684,0.016249627,0.014593665039062498
1.236,0.017110851562499998,0.019575498,0.056434816,0.016249861,0.014594267578124999
1.24,0.017110213,0.019574359,0.056440953,0.016250834,0.014595575
1.244,0.017110012,0.019574425781249998,0.056445109,0.016250935,0.014595541992187499
1.248,0.017110113,0.019574023437499997,0.056441156,0.016249962,0.014596749
1.252,0.017109174,0.019573119140624998,0.05643448,0.016249124,0.014596716
1.256,0.017108168,0.019572951,0.056433645,0.016247984,0.014595340820312499
1.26,0.017108269531249998,0.019572246,0.056438504,0.016246811,0.014593698
1.264,0.017109041,0.019571945,0.056441156,0.016246878,0.014592692
1.268,0.017109275390624998,0.019573453124999998,0.056436797,0.016247347,0.014591854492187499
1.272,0.017108906,0.019574293,0.056429754,0.016246375,0.014590312
1.276,0.017108639,0.019573186,0.056428414062499994,0.016246039,0.014590412
1.28,0.017110348,0.019573152,0.056432941,0.016245503,0.014589406249999999
1.284,0.017110314,0.019572381,0.056435218749999995,0.016244464,0.014587127
1.288,0.017109912,0.019572045,0.056431296874999995,0.016243927,0.014585986
1.292,0.017110047,0.019571811,0.056424925781249996,0.016242251,0.014584645507812499
1.296,0.017109879,0.019571342,0.05642459,0.016241714843749998,0.014584478
1.3,0.017110482,0.019570805,0.056429621,0.016241479,0.014583506
1.304,0.01711142,0.019570906,0.056432539062499995,0.016242485,0.014583472
1.308,0.017111387,0.019572381,0.056429855,0.016243826,0.014584411132812499
1.312,0.017111018,0.019572516,0.056425195312499996,0.016244665039062498,0.014585853
1.316,0.017112092,0.019571978515624998,0.056425531,0.016243726,0.014584142578124999
1.32,0.017112359,0.019571542968749998,0.056431633,0.016243826,0.014584512
1.324,0.017112963,0.019570369,0.056435824,0.016244062,0.014584545
1.328,0.017114068359374998,0.019570436,0.056432269531249996,0.016243961,0.014585785
1.332,0.017114572,0.019570168,0.056426703,0.016243491,0.01458659
1.336,0.017115008,0.019569867,0.056426437499999996,0.016242352,0.014583975
1.34,0.017115176,0.019570336,0.056431464843749994,0.016241580078124998,0.014582130859374999
1.344,0.017115041,0.019571309,0.056435453,0.016241479,0.014582198242187499
1.348,0.017114975,0.019572381,0.056432035,0.016241580078124998,0.014582633789062499
1.352,0.017114707,0.019572717,0.056425796874999996,0.016241882,0.014581159179687499
1.356,0.017115143,0.019573287,0.056425395,0.016241882,0.014579952148437499
1.36,0.017115879,0.019573488,0.056429891,0.016241514,0.014578509765624999
1.364,0.017115813,0.019572885,0.056433039062499996,0.016241446,0.014578711
1.368,0.017116349609374998,0.019573723,0.056429352,0.016241647460937498,0.014580254
1.372,0.017116482,0.019574527,0.056423082031249995,0.016241044,0.014579281
1.376,0.017116214843749998,0.019574627,0.056422312499999995,0.016240206054687498,0.014574822265624999
1.38,0.017116719,0.019573891,0.056427742,0.016239904,0.014574219
1.384,0.017117322,0.019573554687499998,0.056431398437499995,0.01624034,0.014575492187499999
1.388,0.017117689453124998,0.01957466,0.056428078124999996,0.016241211914062498,0.014576196
1.392,0.017116316,0.019575063,0.056422949,0.016241514,0.01457794
1.396,0.017115914062499998,0.019574425781249998,0.056423183593749995,0.016241714843749998,0.014578074218749999
1.4,0.017116047,0.019574225,0.056429855,0.016242251,0.014577772
1.404,0.017116785156249998,0.019575096,0.05643398,0.016242518554687498,0.014577068359374999
1.408,0.017115677734374998,0.019575264,0.056430460937499996,0.016242418,0.014576767
1.412,0.017114539,0.019575297,0.056424828,0.016241814,0.014577102
1.416,0.017114068359374998,0.019574963,0.056423453124999995,0.016240641601562498,0.014576666
1.42,0.017114068359374998,0.019574729,0.056427777,0.016240474,0.014575492187499999
1.424,0.017114137,0.019574963,0.05643066,0.016241580078124998,0.014577503906249999
1.428,0.017114638671874998,0.019575768,0.056426805,0.016241949,0.014579751
1.432,0.017116014,0.019575498,0.056421977,0.016241949,0.014580187
1.436,0.017115846,0.019574963,0.056422277,0.016240574218749998,0.014578443
1.44,0.017115947,0.019574458984374998,0.056428179687499996,0.016239938,0.014576833984374999
1.444,0.017116281,0.019574092,0.056432269531249996,0.016240373,0.014576432
1.448,0.017118025,0.019574693,0.056429352,0.01624091,0.014576935
1.452,0.017118059,0.019574359,0.056424054687499996,0.016240541,0.014577370117187499
1.456,0.017117253906249998,0.019573252,0.056423219,0.016239065429687498,0.014574855
1.46,0.017116719,0.019573387,0.056428414062499994,0.016238295,0.014573178710937499
1.464,0.017117154,0.019573453124999998,0.056431296874999995,0.016237858,0.014571804687499999
1.468,0.017118293,0.01957332,0.056427242,0.016238059570312498,0.014572307617187499
1.472,0.017118764,0.019572849609374998,0.056421305,0.016237691,0.014572643
1.476,0.017118764,0.019572516,0.056420703,0.016236853,0.014572341
1.48,0.017117959,0.019571978515624998,0.056426132812499995,0.01623635,0.014572106
1.484,0.017117220703124998,0.019571879,0.056430059,0.016236618,0.014571872070312498
1.488,0.017116818,0.019572281,0.05642677,0.016237154,0.014574219
1.492,0.017116584,0.019572783,0.056421473,0.016237222,0.014574353
1.496,0.017115846,0.019572146,0.056422210937499995,0.016236417,0.014572877
1.5,0.017116482,0.019572582,0.056429086,0.016236786,0.014571435546874999
1.504,0.017116785156249998,0.019572683593749998,0.056432941,0.016237121093749998,0.014571872070312498
1.508,0.017118395,0.019573855,0.056429386718749995,0.016237188,0.014571973
1.512,0.017119835937499998,0.01957466,0.056424390624999994,0.01623692,0.014571502929687499
1.516,0.017119635,0.019573957,0.056424390624999994,0.016236384,0.014571973
1.52,0.017118998,0.019573387,0.056430156249999995,0.016236953,0.014571369
1.524,0.017118695312499998,0.019573252,0.056434148,0.016237355,0.014570396
1.528,0.017118563,0.019573891,0.056431598,0.01623739,0.014572073242187499
1.532,0.017118395,0.019574023437499997,0.056426335937499995,0.016237523,0.014573213
1.536,0.017116650390624998,0.019572783,0.056426937499999996,0.016237624023437498,0.014573581
1.54,0.017116449,0.019572447265624997,0.056432773,0.01623739,0.014571872070312498
1.544,0.017117287,0.019572381,0.056435824,0.016237624023437498,0.014570497070312499
1.548,0.017115545,0.019572783,0.056431934,0.016237289,0.014570798828124999
1.552,0.017114941,0.019572615,0.056426035,0.01623635,0.01457147
1.556,0.017113867,0.019571677734374997,0.056425898,0.016236115,0.014571737304687499
1.56,0.017112828,0.019571375,0.056431999999999996,0.016236517578124998,0.01457147
1.564,0.017112594,0.019571107421874998,0.05643666,0.016237087890624998,0.014571570312499999
1.568,0.017112863281249998,0.019571711,0.056432707031249994,0.016237355,0.014572174
1.572,0.017113298828124998,0.019572080078124998,0.05642677,0.016237154,0.014571604
1.576,0.0171135,0.019571477,0.056427242,0.016235947265624998,0.014571201
1.58,0.0171136,0.01957124,0.056432941,0.016235479,0.014570598
1.584,0.017113936,0.019571309,0.056436562499999995,0.016235813,0.014570162
1.588,0.017113969,0.019571879,0.056433476562499994,0.016236853,0.014571369
1.592,0.017114506,0.019572213,0.056427141,0.016236115,0.014570866
1.596,0.017115242,0.019571039,0.056426738,0.016234036,0.014569692382812499
1.6,0.017115208984374998,0.019569699,0.056432504,0.016232796,0.014569961
1.604,0.017115443,0.019569933593749998,0.056434852,0.016233533,0.014569659
1.608,0.017115644531249998,0.019569867,0.056430793,0.016233499999999998,0.014567145
1.612,0.017115275,0.019569666,0.056424895,0.016233533,0.014566306
1.616,0.017113734,0.019569162,0.056424390624999994,0.016233835,0.014566104492187499
1.62,0.017112594,0.019568492187499998,0.056430695312499994,0.016234774,0.014566574
1.624,0.017111689,0.01956866,0.056434883,0.016236283,0.014568787
1.628,0.017111588,0.0195699,0.056431633,0.016236752,0.014569524
1.632,0.017111219,0.019570033,0.05642657,0.016237222,0.014567849
1.636,0.017111789,0.019569096,0.056426637,0.016236115,0.014567211
1.64,0.017113029,0.019568156,0.056431699,0.016235344,0.014565736328124999
1.644,0.017113701,0.019567486328124998,0.056435555,0.016235109,0.014566171874999999
1.648,0.017113701,0.019567921874999998,0.056433645,0.016235511718749998,0.014567211
1.652,0.017114941,0.019568826171874998,0.056429418,0.016236047851562498,0.014566139
1.656,0.017115914062499998,0.019568492187499998,0.056430023,0.016235511718749998,0.014564696
1.66,0.017116014,0.019567351562499998,0.056435152343749996,0.016235344,0.014565668945312499
1.664,0.017115109,0.019565877,0.056437801,0.016236719,0.014567446
1.668,0.01711484,0.019566211,0.056433308593749995,0.016237188,0.014567044
1.672,0.01711541,0.019566648,0.056428246093749995,0.01623739,0.014567446
1.676,0.017115343749999998,0.019565643,0.056428684,0.016237020507812498,0.014567949
1.68,0.017114605,0.019565172,0.056434785,0.016237590820312498,0.014568317
1.684,0.017114807,0.019565808593749998,0.056438101562499995,0.016237456,0.014567915039062499
1.688,0.017114975,0.019566145,0.056434215,0.016237691,0.014569558593749999
1.692,0.017114438,0.019566480468749998,0.056428281,0.016237355,0.014569357
1.696,0.017112863281249998,0.019566547,0.056428144531249995,0.016237020507812498,0.014568753906249999
1.7,0.017111287109374998,0.019566279,0.056433207031249995,0.016236887,0.014566843
1.704,0.017110783,0.019566514,0.056436394531249996,0.01623645,0.014564193
1.708,0.017111053,0.019566814453124998,0.056432871093749996,0.016235344,0.014563355468749999
1.712,0.017109979,0.019566145,0.056427508,0.01623464,0.014563021
1.716,0.017108839843749998,0.019564435546874998,0.056427273437499995,0.016233098,0.014561981445312499
1.72,0.017109041,0.01956373,0.056432101562499996,0.01623226,0.014560372070312499
1.724,0.017107498,0.019564066,0.056436292968749996,0.016233802,0.014562551
1.728,0.017107029,0.019563799,0.056433039062499996,0.016233935546874998,0.014564328
1.732,0.017106928,0.01956316,0.056427406,0.016233935546874998,0.014565233398437499
1.736,0.017106057,0.019563061,0.056427844,0.016233902,0.014563858398437499
1.74,0.017105586,0.019562793,0.056433109,0.016233366,0.014561143
1.744,0.017104615,0.019562859374999998,0.056435656,0.016233432617187498,0.014562015
1.748,0.017103642578124998,0.019563127,0.056431531,0.016234036,0.014564595703124999
1.752,0.017102334,0.019561787,0.056425898,0.016233165,0.014562148437499998
1.756,0.017100357,0.019559304687499997,0.056426269531249997,0.016232662,0.014562583984374999
1.76,0.017099686,0.019557259765624998,0.056431363,0.016232763,0.014561311
1.764,0.017099686,0.019556758,0.056433945,0.016233332,0.014561579
1.768,0.017100054687499998,0.019557259765624998,0.056429418,0.016233165,0.014562583984374999
1.772,0.017097943,0.019556086,0.056422980468749995,0.016231923828124998,0.014563188
1.776,0.017094523,0.019553941,0.056422648,0.016230047,0.014560337890624999
1.78,0.01709402,0.019552062499999998,0.056427676,0.016229813,0.014560305
1.784,0.01709402,0.01955099,0.056431027343749995,0.016230784,0.014562483
1.788,0.017092109374999997,0.019549648,0.056427508,0.016230684,0.014562953
1.792,0.017090064453124998,0.019547771,0.056422042968749996,0.016229343,0.014560673828124999
1.796,0.01708926,0.01954643,0.056422144531249996,0.016228136,0.014559802
1.8,0.017086979,0.019543748,0.056426738,0.016227968,0.01456074
1.804,0.017085437499999998,0.019543009765624998,0.056428246093749995,0.016228807,0.014559734
1.808,0.01708366,0.019542810546874997,0.05642409,0.016229142,0.014561243
1.812,0.017082922,0.019542709,0.056417988,0.016228571,0.014561981445312499
1.816,0.017081949,0.01954234,0.056416242,0.016227465,0.014560438
1.82,0.01708024,0.019541367,0.056419863281249996,0.016227398,0.014558159179687499
1.824,0.017079904,0.019541234374999997,0.056422042968749996,0.016228035,0.014558964
1.828,0.017080508,0.019541736,0.05641782,0.016228706,0.014560707
1.832,0.017080541,0.019541604,0.056413058593749996,0.016228739,0.014559467
1.836,0.017080174,0.019540664062499997,0.056413492,0.016227801,0.014558494
1.84,0.017079168,0.019539355,0.056419195312499996,0.016227499023437498,0.014557656249999999
1.844,0.017078766,0.019538686,0.056422379,0.016228136,0.014558394
1.848,0.017078496,0.019538586,0.056418890624999996,0.016228504882812498,0.014558326171874999
1.852,0.017079033,0.019538854,0.056413527,0.016228236,0.014558896
1.856,0.017079066,0.01954016,0.056414434,0.016227633,0.014557823
1.86,0.017079267578124998,0.019541133,0.056420402343749995,0.01622656,0.014554604
1.864,0.017079436,0.019541367,0.056423316,0.01622666,0.014553766601562499
1.868,0.017078832031249998,0.019542039,0.056419496,0.016227163,0.014553565
1.872,0.017079334,0.019542207031249998,0.056413929687499996,0.01622589,0.014552325
1.876,0.017079736328124998,0.01954177,0.056413828124999996,0.016224615,0.014551286132812499
1.88,0.01707967,0.019541669921874998,0.056420300781249995,0.016225051,0.014552291
1.884,0.017080375,0.019542609,0.056423621093749994,0.016225789,0.014552492
1.888,0.017082486,0.019544051,0.056418961,0.016226292,0.014553096
1.892,0.017082586,0.019544184,0.056414199218749995,0.01622666,0.014554269531249999
1.896,0.017081045,0.019543346,0.056415504,0.016226996093749998,0.014553331054687499
1.9,0.017080441,0.019543111328124998,0.056422414062499995,0.016228203,0.014553196289062499
1.904,0.017080105,0.019543982421874998,0.056426269531249997,0.016229913,0.014554438
1.908,0.01708091,0.019545424,0.056422414062499995,0.016230248,0.014553766601562499
1.912,0.017081547,0.01954509,0.056417281,0.016229108,0.014554571
1.916,0.01708118,0.019545424,0.056418961,0.016229813,0.014556382
1.92,0.017081514,0.01954566,0.056424425781249996,0.016229074,0.01455018
1.924,0.017082385,0.019545525,0.056426672,0.016229712,0.014550884
1.928,0.017083324218749998,0.019545928,0.056422312499999995,0.016229745,0.014551788
1.932,0.017083291,0.019546027343749998,0.056417449,0.016229778,0.014551017578124999
1.936,0.017083492,0.019546564453124998,0.056418859,0.016229343,0.01455018
1.94,0.017084195312499998,0.019547134765624998,0.056425867,0.016229577,0.014549274414062499
1.944,0.017084363,0.019546666,0.05642875,0.016230248,0.014550514648437499
1.948,0.017084666,0.019547167968749998,0.056424257812499996,0.016229979492187498,0.014550280273437499
1.952,0.017084633,0.019548074,0.056419664,0.016230013671874998,0.014550683
1.956,0.017084531,0.019547838,0.056421171874999995,0.016230751,0.01455018
1.96,0.017085604,0.019548074,0.056426906,0.016231388,0.014550381
1.964,0.017086543,0.019549884765624997,0.056430257812499995,0.016232192,0.01455085
1.968,0.017085906249999998,0.019550488,0.056426234374999995,0.016233198,0.014550280273437499
1.972,0.017085470703124998,0.019551225,0.056421070312499995,0.016233701,0.01455085
1.976,0.017084699,0.019551996,0.056421809,0.016233935546874998,0.014550079101562498
1.98,0.01708423,0.0195526,0.056427844,0.016234171,0.014549408
1.984,0.017085537,0.019554107421874998,0.05643143,0.016234573242187498,0.014551051
1.988,0.017086979,0.019554912,0.056426672,0.016233668,0.014549576
1.992,0.017087213,0.019554645,0.056420637,0.016232829,0.014548838
1.996,0.017086476562499998,0.019553639,0.056421339843749994,0.016232226,0.014549844
2,0.017086744,0.019552734,0.056426437499999996,0.016231086,0.014548604
2.004,0.017086543,0.019553068,0.056429218749999996,0.016230047,0.014546759765624999
2.008,0.017087347656249998,0.019552533,0.056425563,0.016229611,0.014548402
2.012,0.017087917968749998,0.019552432,0.056421473,0.016229846,0.014548771484374999
2.016,0.017087816406249998,0.019552332031249998,0.056423383,0.016230784,0.014549844
2.02,0.017087885,0.019551494,0.056428347656249996,0.016230852,0.014550816
2.024,0.017087482421874998,0.019551426,0.056430359374999996,0.016231052734374998,0.014549609
2.028,0.017087414,0.019552432,0.056426672,0.016230885,0.014549542
2.032,0.017086979,0.019552867,0.056423418,0.016231757,0.014551251953124998
2.036,0.017087684,0.019553337890624998,0.056424758,0.016231354,0.014548838
2.04,0.017088656,0.019552062499999998,0.056430257812499995,0.016231589,0.014547832
2.044,0.01709023,0.019551896484374998,0.056432906,0.01623226,0.014548268554687499
2.048,0.017090902,0.019553371,0.056428547,0.016233266,0.014549039
2.052,0.017090533,0.019553906,0.056423621093749994,0.016233835,0.014548101
2.056,0.017090197,0.019552936,0.056424793,0.016234036,0.014548435546874999
2.06,0.017090533,0.0195525,0.056430359374999996,0.016234539,0.014547062
2.064,0.017092176,0.019553605,0.056432539062499995,0.016234438476562498,0.014546624999999999
2.068,0.017094086,0.019554343749999998,0.056428012,0.016233266,0.014545619140624999
2.072,0.01709526,0.019553572,0.056423051,0.016231991210937498,0.014545217
2.076,0.01709459,0.019552969,0.056424691,0.016232024,0.014546458007812499
2.08,0.017094322,0.019553639,0.056431266,0.016232494140624998,0.014544949218749999
2.084,0.017094322,0.019554242187499998,0.056434347656249995,0.016232527,0.014544748
2.088,0.017094824,0.01955451,0.056429988281249996,0.016232896,0.014544982
2.092,0.017093482,0.01955451,0.056425261718749994,0.016233533,0.014546559
2.096,0.017093518,0.019554107421874998,0.056427777,0.016233869,0.014546458007812499
2.1,0.017093182,0.019553539,0.056434785,0.016233769,0.014545317382812499
2.104,0.017092678,0.019553873,0.056437465,0.016233332,0.01454458
2.108,0.017092713,0.019554846,0.056433476562499994,0.016233332,0.01454505
2.112,0.017091505859374998,0.01955508,0.056428281,0.016232829,0.014543909
2.116,0.017090467,0.019554677734374998,0.056429418,0.016231991210937498,0.014542971
2.12,0.017090064453124998,0.019554176,0.056435656,0.016232461,0.014542971
2.124,0.017090533,0.01955317,0.056438472656249995,0.016232796,0.014542702
2.128,0.017091807,0.019553806640624997,0.056434179687499995,0.016232461,0.014542434570312499
2.132,0.017092813,0.019554041,0.056430425781249995,0.016233332,0.014543205
2.136,0.017092645,0.019553236328124998,0.056432469,0.016233601,0.014541293945312499
2.14,0.017091338,0.019552801,0.056438672,0.01623464,0.014541361328124999
2.144,0.017092008,0.019553068,0.056440753906249995,0.016235344,0.014541796874999999
2.148,0.017092813,0.019554275,0.056435086,0.01623521,0.014543205
2.152,0.017092578,0.019554477,0.056429554687499994,0.016234271,0.014542199
2.156,0.017093148,0.019554578,0.056429320312499996,0.016233701,0.014542602
2.16,0.017092746,0.01955384,0.056433813,0.016234036,0.014543406
2.164,0.017092410156249998,0.019553438,0.056436562499999995,0.016234372,0.014543909
2.168,0.017091203,0.019554309,0.056431902,0.016234674,0.014544781
2.172,0.017089929687499998,0.019554443,0.056425531,0.016233869,0.014543909
2.176,0.017089023,0.019553506,0.056425934,0.016234002929687498,0.014543775
2.18,0.017088086,0.01955193,0.056431398437499995,0.016235143,0.01454401
2.184,0.017087248,0.019551996,0.056433308593749995,0.016234774,0.014540892578124999
2.188,0.017086879,0.019552566,0.056428179687499996,0.016234271,0.014542032
2.192,0.017087885,0.019552533,0.056421441406249995,0.016233769,0.01454334
2.196,0.017087516,0.019551393,0.056421371,0.016232494140624998,0.014540959
2.2,0.017085771484374998,0.019549918,0.05642657,0.016232595,0.014542032
2.204,0.017083861328124998,0.019549884765624997,0.056429320312499996,0.016233366,0.014543574218749999
2.208,0.017083928,0.019550924,0.056424758,0.016232896,0.014541059570312499
2.212,0.017083793,0.019550588,0.056419363281249996,0.016232494140624998,0.014541462
2.216,0.017083727,0.019549381,0.056420168,0.016232092,0.014541562499999999
2.22,0.017083759765624998,0.019548710937499998,0.056426167968749996,0.016231086,0.014539047851562499
2.224,0.017084564,0.019547134765624998,0.056428816,0.016230751,0.014538344
2.228,0.017085068,0.0195469,0.056424691,0.016230482421874998,0.014538981
2.232,0.017084765624999998,0.0195469,0.056419629,0.016229846,0.014540088
2.236,0.017084699,0.019546063,0.056420332,0.016229175,0.014539484
2.24,0.017082988,0.019546128906249998,0.056426402343749994,0.01622941,0.014537941
2.244,0.017083525,0.019546531,0.056429117187499996,0.016230248,0.014537171
2.248,0.017084129,0.019546027343749998,0.056424492187499994,0.016230181,0.014538109374999999
2.252,0.017082988,0.019545057,0.056418156,0.016228571,0.01453697
2.256,0.017081748046874998,0.019544015624999998,0.056419058593749995,0.016227364257812498,0.014534521
2.26,0.017080105,0.019542775,0.056423754,0.016226828,0.014533248046874999
2.264,0.017078162,0.019542609,0.056424925781249996,0.016227298,0.014534521
2.268,0.017076887,0.01954234,0.056418355,0.016225990234374998,0.014532309
2.272,0.017075748,0.019540361,0.056410207,0.016224045,0.014529458984374998
2.276,0.017074775390624998,0.019537478515624998,0.05640927,0.016223441,0.014528554
2.28,0.017073535,0.0195354,0.056413492,0.016222805,0.014528855468749999
2.284,0.017072662109374998,0.019534125,0.056414734,0.016222503,0.014530029
2.288,0.017071322265624998,0.019533389,0.056408867187499996,0.016221899,0.014528487304687499
2.292,0.017069008,0.019532717,0.056402195,0.016221832031249998,0.014529157226562499
2.296,0.017066560546874998,0.019530839843749998,0.056402965,0.016221631,0.014529124
2.3,0.017064615,0.019528861328124997,0.056408801,0.016221497,0.014528621
2.304,0.017062604,0.019526984,0.056410543,0.016220391,0.014529961914062499
2.308,0.017060056640624998,0.019525039,0.056404105,0.016218882,0.014529594
2.312,0.017056736,0.019521955,0.056395589843749996,0.016217407226562498,0.014528085
2.316,0.017054892578124998,0.019519171874999998,0.056395355,0.016216468,0.014528252
2.32,0.017053316406249998,0.019517160156249998,0.056400754,0.016215797851562498,0.014525302
2.324,0.017051373,0.019515820312499998,0.056402562499999996,0.016215462,0.014523122
2.328,0.017049830078124998,0.019514445,0.056396527343749996,0.01621506,0.014526609
2.332,0.017048691,0.019513473,0.056390660156249994,0.016213651367187498,0.014527548
2.336,0.01704698,0.019512266,0.056392574,0.016212881,0.014527145507812499
2.34,0.017045404,0.019511662109374998,0.056399078124999995,0.016213115,0.014527749
2.344,0.017044869,0.019512602,0.056402094,0.016213987,0.014528218749999999
2.348,0.017044902343749998,0.019513808593749998,0.056397871093749996,0.016214757812499998,0.014527447
2.352,0.017043627,0.019514244140624998,0.056392574,0.016214825,0.014526441
2.356,0.017043359,0.019514142578124997,0.056393547,0.016214254882812498,0.014526006
2.36,0.017043695,0.019513539062499998,0.056398172,0.016212545,0.014522385
2.364,0.017045002,0.019513539062499998,0.056400015624999994,0.016211808,0.014521178
2.368,0.017045572,0.019513875,0.056396094,0.016212378,0.014522787
2.372,0.017046713,0.019514178,0.056390895,0.016211237,0.014521077148437499
2.376,0.017046881,0.019514881,0.056390695312499996,0.016210299,0.014517825195312499
2.38,0.017046881,0.019515384765624998,0.056396766,0.016210567,0.014516819335937499
2.384,0.017048388671874998,0.019515718749999997,0.056400148,0.016211036,0.014517020507812499
2.388,0.017048490234374998,0.019515184,0.056396195312499994,0.016210231,0.014518026367187499
2.392,0.017048992,0.019514848,0.056391566406249996,0.01620936,0.014514707031249999
2.396,0.017050064,0.019514679687499998,0.056394316,0.016209562,0.014513533
2.4,0.017050668,0.019514378906249998,0.056401089843749995,0.016210299,0.014515479
2.404,0.017052076,0.019514947,0.056403402,0.016210668,0.014514606
2.408,0.017052949,0.019514947,0.056399344,0.016210064,0.01451303
2.412,0.017053955,0.019514679687499998,0.056394785156249995,0.016210231,0.014514573242187499
2.416,0.017055295,0.019514613,0.056395656249999995,0.016209629,0.014511589
2.42,0.017056468749999998,0.019514712890624997,0.056401055,0.016210064,0.014510214
2.424,0.017056703,0.019515854,0.056402598,0.016210198242187498,0.014511153
2.428,0.017057139,0.019516424,0.056398172,0.016209662,0.014510683593749999
2.432,0.017057474609374998,0.019516658,0.056393644531249995,0.016209394,0.014511857
2.436,0.017058213,0.019516793,0.056395824218749994,0.016209092,0.014511689453124999
2.44,0.017059285,0.019516893,0.056401727,0.01620983,0.014512896
2.444,0.017059387,0.019517160156249998,0.056404543,0.016211036,0.01451303
2.448,0.017060559,0.019517697265624998,0.056400718749999995,0.016211941,0.014512293
2.452,0.017061095703124998,0.019518066,0.056396496,0.016212243,0.014512729
2.456,0.017061129,0.019517865234374997,0.056398406,0.016211606,0.014510784
2.46,0.017061564,0.01951877,0.056403972656249995,0.016211104,0.014509375976562499
2.464,0.017062972656249998,0.019520781,0.056406921874999995,0.016211976,0.014510349
2.468,0.017063443,0.019522357,0.056403438,0.016212981,0.014511521
2.472,0.017062438,0.019522123,0.056398508,0.016213048,0.014512124999999999
2.476,0.017061297,0.019521385,0.056398609,0.016212712890624998,0.014509946289062499
2.48,0.017061598,0.019521553,0.056401121,0.016213015,0.014509745117187499
2.484,0.017062906,0.019521955,0.056399914,0.01621506,0.014512426757812499
2.488,0.017064146,0.019522291,0.056390527,0.016215396,0.014513533
2.492,0.017063811,0.019522357,0.056380636718749995,0.016214557,0.014514036
2.496,0.017064213,0.019521084,0.056378793,0.016213751953124998,0.014513567382812499
2.5,0.017064146,0.019520882812499998,0.056381375,0.016213384,0.014509142
2.504,0.017064348,0.019521486,0.056379765624999995,0.016213283203124998,0.01451008
2.508,0.01706465,0.019521621,0.056371113281249996,0.016212411,0.014509778
2.512,0.017063912,0.019521621,0.056363605468749994,0.016212042,0.014510047
2.516,0.01706408,0.019521753906249998,0.056362801,0.016211405,0.014508035
2.52,0.017064248046874998,0.019521318359374998,0.056366086,0.01621107,0.014505521
2.524,0.017063408203124998,0.019521988,0.056366086,0.016211473,0.014505185546874999
2.528,0.017063342,0.019523363281249997,0.056360015624999996,0.016212512,0.014506157
2.532,0.01706351,0.019523832,0.056353613,0.016213417,0.014508203124999999
2.536,0.017065354,0.019522894531249998,0.056353078,0.016213249,0.014505722
2.54,0.017066158,0.019521688,0.056356832,0.016213183,0.014504179687499999
2.544,0.017065588,0.019522189453124998,0.056357102,0.016213718749999998,0.014506325
2.548,0.017066191,0.019522458984374998,0.056352508,0.016214993,0.014508706054687499
2.552,0.017066426,0.019522961,0.056347043,0.016214322,0.014507499023437499
2.556,0.017065957,0.01952266,0.056347277343749995,0.016213953,0.014506928710937499
2.56,0.017065521,0.019521888671874998,0.056351168,0.016214423,0.014506962
2.564,0.017065253906249998,0.019521721,0.056351602,0.016214221679687498,0.014505688476562499
2.568,0.017065152,0.019522057,0.056346035156249995,0.016213887,0.014505755
2.572,0.017063542968749998,0.019521822,0.056340773,0.016214657,0.014507197265624999
2.576,0.017061732,0.01952115,0.05634084,0.016215094,0.014508504882812499
2.58,0.017060895,0.019521621,0.056344965,0.016215965,0.014508671874999999
2.584,0.017061195,0.019522727,0.056346438,0.016216836914062498,0.01450931
2.588,0.017061531249999998,0.019522525,0.056340941,0.016216736,0.014509108
2.592,0.017061867,0.019521721,0.056334871093749996,0.016216435,0.014509343
2.596,0.017062303,0.019521654,0.056336617,0.016216367,0.014509477
2.6,0.017061598,0.01952115,0.056342984374999995,0.016216535,0.014509711
2.604,0.017061297,0.019521419921874998,0.056345836,0.016216669,0.014507733
2.608,0.017061195,0.019521285,0.05634084,0.016216300781249998,0.014507431640624999
2.612,0.017060191406249998,0.019520816,0.056336078124999994,0.016216300781249998,0.014507834
2.616,0.01705942,0.019519811,0.056337152343749995,0.016216333984374998,0.014506828
2.62,0.017058949218749998,0.019518637,0.056341477,0.016216568,0.014508304
2.624,0.017060225,0.019519541,0.056343253906249995,0.01621744,0.014507733
2.628,0.017061432,0.019520547,0.056338863,0.016217574,0.014507097
2.632,0.0170619,0.019519676,0.056333230468749995,0.016217239,0.014508337
2.636,0.017061966796874998,0.019518234,0.056333766,0.016216233,0.014506761
2.64,0.017062906,0.019517496,0.05633893,0.016215260742187498,0.014505185546874999
2.644,0.017063477,0.019517865234374997,0.05634057,0.016215496,0.014506795
2.648,0.017063006,0.019518805,0.056335910156249995,0.01621506,0.014505654
2.652,0.017062638671874998,0.019517865234374997,0.056330043,0.016214088,0.014503877929687499
2.656,0.017062638671874998,0.019515854,0.056330781249999996,0.016213551,0.014501228515624999
2.66,0.017062705,0.019515184,0.056335945312499996,0.016213686,0.014501866210937499
2.664,0.017063744,0.019515953,0.056337621,0.016214657,0.014501027343749999
2.668,0.017063879,0.019516121093749998,0.056331789,0.016214724609374998,0.014503341
2.672,0.017062303,0.019515787,0.056327027343749995,0.016214858,0.014504783
2.676,0.017061867,0.019515953,0.056329844,0.016214825,0.014500290039062499
2.68,0.017061564,0.019515551,0.056336449218749994,0.016215663,0.014502503
2.684,0.017061564,0.019515685546874998,0.056338223,0.016215999,0.014501597656249999
2.688,0.017060861,0.019516826171874998,0.056332960937499996,0.016216300781249998,0.01450371
2.692,0.017060960937499998,0.019518367,0.056327832,0.01621687,0.014504515
2.696,0.017060291,0.019517898,0.056330043,0.016216904296874998,0.014502804687499999
2.7,0.017060156,0.019517229,0.056336648,0.016217005,0.014501631
2.704,0.017061699,0.019517396484374998,0.056337688,0.016217071,0.014501329
2.708,0.0170619,0.019517463,0.056331820312499996,0.016216568,0.014501832
2.712,0.017061699,0.019517094,0.056326422,0.016215597,0.014502704
2.716,0.01706123,0.019516724609374998,0.05632857,0.016215663,0.014502301757812499
2.72,0.017061396484374998,0.019516557,0.056334535,0.016215932,0.014501263
2.724,0.017061699,0.019518166015624998,0.056336449218749994,0.016216401,0.014501832
2.728,0.017062168,0.019518938,0.056331218749999995,0.016216836914062498,0.014502033203124999
2.732,0.017062604,0.019518133,0.05632525,0.016215563,0.014501832
2.736,0.017062402343749998,0.019517396484374998,0.056326559,0.01621439,0.014501061523437499
2.74,0.017062101562499998,0.019517229,0.056332289,0.016215227539062498,0.014501832
2.744,0.017063174,0.019517027,0.056334301,0.0162161,0.014501363281249999
2.748,0.01706418,0.019517094,0.056328871093749996,0.016216367,0.014500055664062499
2.752,0.017063408203124998,0.019517328,0.056324312499999994,0.0162161,0.014500222656249999
2.756,0.017063309,0.019517195,0.056326793,0.016215597,0.014498077
2.76,0.017063375,0.019516523,0.056332391,0.016215663,0.014499452
2.764,0.01706418,0.019516793,0.056334738,0.016215898,0.014500961
2.768,0.017064615,0.019517563,0.056330613,0.016216836914062498,0.014503207
2.772,0.017065119140624998,0.019517563,0.05632582,0.016216904296874998,0.014503643
2.776,0.01706542,0.019516758,0.056328133,0.016215763671874998,0.014500156
2.78,0.017066560546874998,0.019517229,0.056335039062499995,0.016215999,0.014498077
2.784,0.017065756,0.019517127,0.056337152343749995,0.016216401,0.014501228515624999
2.788,0.017064918,0.019516289062499997,0.056331953,0.016216803710937498,0.014505822
2.792,0.017065152,0.019516255859374998,0.056327461,0.016215999,0.01450428
2.796,0.017065689453124998,0.019516793,0.056330043,0.016215429,0.014503307617187499
2.8,0.017066326,0.019517529,0.056336011718749995,0.016214757812499998,0.014502973
2.804,0.017065924,0.019518,0.056337921874999995,0.016215396,0.014504682617187499
2.808,0.017066627,0.019518367,0.056333195,0.016215932,0.014504112304687499
2.812,0.017066996,0.019517965,0.056328266,0.016215396,0.014503207
2.816,0.017067164,0.019517396484374998,0.056330211,0.01621516,0.014501665
2.82,0.017068035156249998,0.019516893,0.056335543,0.016215864,0.014502704
2.824,0.017069109,0.019517664,0.056337253906249996,0.016216803710937498,0.014502603515624999
2.828,0.017069242,0.019518367,0.056332391,0.016217574,0.014503676757812499
2.832,0.017068875,0.01951877,0.056327527343749996,0.016217071,0.014505688476562499
2.836,0.017068438,0.019517898,0.056328835937499995,0.016217105,0.014505118164062499
2.84,0.017068674,0.019517094,0.056334066406249994,0.016216938,0.014503743
2.844,0.017067902,0.019517294921874997,0.056334301,0.016216233,0.014503843749999999
2.848,0.017067533,0.019517361,0.056329273,0.016215797851562498,0.014507163
2.852,0.017067398,0.019516355,0.056324914062499995,0.016215227539062498,0.01450723
2.856,0.017066996,0.019515953,0.056327527343749996,0.016214724609374998,0.01450247
2.86,0.017066326,0.019516691406249998,0.056334234,0.016215260742187498,0.01450247
2.864,0.01706542,0.01951743,0.056336145,0.016216266601562498,0.014504984
2.868,0.017066896,0.019517965,0.05633048,0.016216736,0.014504749
2.872,0.017067701171874998,0.019518502,0.056325652,0.016216736,0.014503307617187499
2.876,0.017066059,0.019517730468749998,0.05632716,0.016217272460937498,0.014502771
2.88,0.017065387,0.019517229,0.056332055,0.016217272460937498,0.01450247
2.884,0.017065387,0.019517396484374998,0.056334035,0.016218145,0.014504582
2.888,0.017066124999999998,0.019518,0.056329539062499996,0.016218681,0.014504849609374999
2.892,0.017066359,0.019518367,0.056324476562499996,0.016217943,0.014501195
2.896,0.017065990234374998,0.019517631,0.056325988281249996,0.016217608,0.014501731445312499
2.9,0.017067164,0.019517294921874997,0.056331218749999995,0.016217675,0.014503476
2.904,0.017068338,0.019517865234374997,0.056332089843749995,0.016217775390624998,0.014504984
2.908,0.017068473,0.019517865234374997,0.056326859374999996,0.016217842773437498,0.01450599
2.912,0.017067969,0.019517195,0.056321629,0.01621687,0.014504246
2.916,0.01706723,0.019517061,0.056322703,0.016216836914062498,0.014503576
2.92,0.017067029296874998,0.019517697265624998,0.056328167968749995,0.016217574,0.014503911
2.924,0.017066896,0.019518234,0.056330109,0.016218681,0.014506325
2.928,0.017067432,0.019518703,0.056325148,0.016218982,0.014507666015624998
2.932,0.01706884,0.019517965,0.056320289,0.016218145,0.014503274
2.936,0.017070115,0.019517094,0.056322464843749996,0.016217608,0.014502637
2.94,0.017070986,0.019517195,0.056328805,0.016218178,0.014503073
2.944,0.017072058593749998,0.019517529,0.056331218749999995,0.016219184,0.014504313476562499
2.948,0.017071557,0.019518300781249998,0.056326422,0.016219017,0.014505487
2.952,0.017070416,0.019519306640624998,0.056321426,0.016217206,0.014503173828124999
2.956,0.017070518,0.019519408203124998,0.056323473,0.016215563,0.014498077
2.96,0.017070181640624998,0.019519072,0.056329777,0.016215864,0.014499787109374999
2.964,0.017069344,0.019519441406249997,0.056332859374999995,0.016216736,0.014501597656249999
2.968,0.017069277343749998,0.019519977,0.056328602,0.016217675,0.01450324
2.972,0.01706968,0.019520177734374998,0.05632441,0.016217307,0.014503476
2.976,0.017068605468749998,0.019520145,0.056327093749999994,0.016217172,0.014502335
2.98,0.017067130859374998,0.019519977,0.056333195,0.016217842773437498,0.014502335
2.984,0.017067332,0.019520916,0.056335140624999995,0.016218614,0.01450324
2.988,0.017066527,0.019520982,0.056330179687499995,0.016219251,0.014502637
2.992,0.017065689453124998,0.019520145,0.056325484,0.016219553,0.014503676757812499
2.996,0.01706532,0.019519943,0.056327262,0.016219854492187498,0.014501967
3,0.017064615,0.019519273437499998,0.056331953,0.016220592,0.014502436
3.004,0.017064918,0.019519408203124998,0.056332792968749996,0.016221229,0.014502704
3.008,0.01706532,0.019520246,0.056327195312499995,0.016221363281249998,0.014501731445312499
3.012,0.017064816,0.019519843749999998,0.056322063,0.016220290039062498,0.014499317
3.016,0.017065152,0.019518904,0.056323003906249995,0.01621905,0.014497809570312499
3.02,0.017065119140624998,0.01951867,0.056327527343749996,0.016219251,0.014498379
3.024,0.017065053,0.01951991,0.056328973,0.016220424804687498,0.014499787109374999
3.028,0.017065086,0.01952058,0.056322602,0.016220324,0.014497809570312499
3.032,0.017064414062499998,0.019519643,0.056316668,0.016219385,0.014497038085937499
3.036,0.017063342,0.019518033,0.056317539,0.016218882,0.014497876
3.04,0.01706351,0.019517697265624998,0.056321293,0.016217339843749998,0.014496938
3.044,0.017063242,0.019518637,0.056321863281249995,0.01621744,0.014497775390624999
3.048,0.017062236,0.019518904,0.056315125,0.016217272460937498,0.014500524414062499
3.052,0.017061834,0.019518066,0.056309859,0.0162162,0.014500592
3.056,0.017062135,0.019516758,0.056311336,0.016215429,0.014498145
3.06,0.017061498,0.01951535,0.056316465,0.01621573,0.014497272460937499
3.064,0.017061095703124998,0.019516189,0.056317973,0.016216568,0.014498145
3.068,0.017062135,0.019516658,0.056312710937499996,0.016215763671874998,0.014498043945312499
3.072,0.01706133,0.019515518,0.056308652343749994,0.016215026,0.014497306640624999
3.076,0.017060492187499998,0.019514109374999998,0.056311336,0.016215563,0.014497005
3.08,0.017060258,0.019512936,0.056317305,0.01621506,0.014497239257812499
3.084,0.017059352,0.019512434,0.056317839843749995,0.016214254882812498,0.014496334
3.088,0.017059084,0.019512667968749998,0.056311672,0.016213015,0.014495361
3.092,0.017058044921874998,0.019512602,0.056306640624999994,0.01621174,0.014494791992187499
3.096,0.017057072,0.019512299,0.056309492,0.016212076,0.01449439
3.1,0.017057877,0.019511863,0.056314754,0.016211707031249998,0.014492746
3.104,0.017057039062499998,0.019511059,0.056316164,0.016211539,0.014494088
3.108,0.017056603515624998,0.01951002,0.056311035156249994,0.016211908,0.014496435
3.112,0.017054423828124998,0.019508310546874998,0.056305133,0.016210633789062498,0.014494691
3.116,0.017052546874999998,0.019507137,0.056306707,0.016209863,0.014491941
3.12,0.017053787,0.019508074218749998,0.05631318,0.016210399,0.014492009
3.124,0.017054156,0.019509215,0.056314855468749994,0.016210567,0.014492746
3.128,0.017054423828124998,0.019509650390624998,0.056308652343749994,0.016211036,0.014493853
3.132,0.017054691,0.019508611328124998,0.056303324,0.01621107,0.014491472656249999
3.136,0.017054021484374998,0.019506633,0.056305902,0.016210467,0.014490064
3.14,0.017054423828124998,0.019505963,0.05631291,0.016209192382812498,0.014488421
3.144,0.017054625,0.019506029296874998,0.056314422,0.016209461,0.014489763
3.148,0.017053955,0.019506566,0.056309156,0.016209025,0.014489527
3.152,0.017053451171874998,0.019506264,0.056304262,0.016207214843749998,0.014487985
3.156,0.017052646,0.019505158203124998,0.056306539,0.016206141601562498,0.014486141601562499
3.16,0.017052346,0.019505124999999998,0.056313215,0.016206778,0.014486477
3.164,0.017052613,0.019505861,0.056314722656249996,0.016207952,0.014486611
3.168,0.017052277,0.019504891,0.05630966,0.016208254,0.014486745
3.172,0.017051943,0.019503783,0.056304394531249996,0.016207382,0.014485538
3.176,0.017050938,0.019503717,0.056306609,0.016206879,0.014485706054687499
3.18,0.01704916,0.019503447265624998,0.056311438,0.016206376,0.014486678
3.184,0.017048824218749998,0.019503951,0.056311703124999994,0.01620584,0.014485739
3.188,0.017048523,0.019504252,0.056306640624999994,0.016205068359374998,0.014485336914062499
3.192,0.017047047,0.01950432,0.056302753906249996,0.016204499,0.014483459
3.196,0.017045639,0.019503045,0.056304730468749994,0.016203594,0.01448195
3.2,0.017044533,0.019502207,0.056310832,0.016203694335937498,0.014483225
3.204,0.017044969,0.019503482,0.056313012,0.016204565429687498,0.014485068359374999
3.208,0.017045472656249998,0.01950442,0.056308417968749996,0.016204733,0.014483795
3.212,0.01704574,0.019503447265624998,0.056304965,0.016204532,0.014482688
3.216,0.017046914062499998,0.019502811,0.056307414,0.016203996,0.014482151
3.22,0.017047518,0.019502375,0.056313113,0.016203426,0.014483124
3.224,0.017047986,0.019502039,0.056313714843749994,0.016203728,0.014482118
3.228,0.017047416,0.019502711,0.056308285,0.01620366,0.014482553710937499
3.232,0.01704641,0.019502477,0.056304195,0.016204264,0.01448423
3.236,0.017045639,0.019500934,0.056307145,0.0162046,0.014484029
3.24,0.017045908203124998,0.019500297,0.056313684,0.016204901,0.014483694
3.244,0.017046645,0.019500632812499998,0.056315156,0.016204901,0.014485169
3.248,0.017047215,0.019502141,0.056309258,0.016204767,0.01448631
3.252,0.017046143,0.019502643,0.056303859374999994,0.016203493,0.014483559570312499
3.256,0.017045572,0.019502441406249998,0.056305734,0.016202487,0.01448128
3.26,0.01704641,0.019502141,0.056310800781249996,0.016202353,0.014480274
3.264,0.017046478515624998,0.019501402343749998,0.056311168,0.016202822,0.014480476
3.268,0.017047484374999998,0.019501637,0.056306609,0.016202755,0.014480106
3.272,0.017046746,0.019501303,0.056302352,0.016201749,0.014478598
3.276,0.01704517,0.019501537109374998,0.056304730468749994,0.016201112304687498,0.014478497070312499
3.28,0.017044869,0.019502174,0.056309457031249996,0.016200576171874998,0.014476519531249999
3.284,0.01704507,0.019502309,0.056309726562499995,0.016200811,0.014476318359374999
3.288,0.017045639,0.019502275,0.056304363,0.016200677,0.014477525390624999
3.292,0.017045806640624998,0.019500531249999998,0.056300004,0.016200073242187498,0.014477592
3.296,0.017045572,0.019499592,0.056302617,0.016200207,0.014475479492187499
3.3,0.017046277,0.019499626953124998,0.056307816406249996,0.016199637,0.014472831
3.304,0.017046578,0.019499056640624998,0.056308352,0.016198531,0.014470484374999999
3.308,0.017045539,0.019498519531249998,0.056303859374999994,0.016198631835937498,0.014472160156249999
3.312,0.017044197265624998,0.019497781,0.056300305,0.016198564453124998,0.01447491
3.316,0.017042723,0.019497513671874998,0.056302484374999996,0.016198564453124998,0.014474407
3.32,0.017042018,0.019496408,0.056307078,0.016199302,0.014475547
3.324,0.017042119,0.019496172,0.056308051,0.016200207,0.014475547
3.328,0.017041717,0.019496474609374998,0.056302820312499995,0.016199570312499998,0.014473334
3.332,0.017040845703124998,0.019496139,0.056298257812499995,0.016199402,0.014473837
3.336,0.017040777,0.019496507812499998,0.056301008,0.016199671,0.014473603
3.34,0.017040711,0.019497111,0.056306843749999995,0.016199034,0.014471021
3.344,0.017040576,0.019498384765624998,0.056308051,0.016199101,0.014470148
3.348,0.017040173828124998,0.019499426,0.056303457,0.016199838,0.014470384
3.352,0.017039035,0.019499357,0.056299031,0.016199671,0.014470651
3.356,0.017037861,0.019498654296874997,0.056301879,0.016199637,0.01447045
3.36,0.017038934,0.01949785,0.056308887,0.016200274,0.014470685546874999
3.364,0.017039639,0.019498018,0.056310297,0.016200979,0.01447139
3.368,0.017039438,0.01949842,0.056305469,0.016201146,0.014471893
3.372,0.017039236,0.019498252,0.056301211,0.01620024,0.014470819
3.376,0.017039135,0.019497313,0.056303523437499996,0.016199771,0.014470416992187499
3.38,0.017038498,0.019496775,0.056308687499999996,0.016200476,0.014471624023437499
3.384,0.01703823,0.019497513671874998,0.05631016,0.016200408,0.014469646
3.388,0.017037693359374998,0.019496676,0.056304292968749996,0.016198967,0.014467802
3.392,0.01703699,0.019496105,0.056299398437499995,0.016198631835937498,0.014468673828124999
3.396,0.017035748,0.019494496093749997,0.056301343749999996,0.016198095,0.014468840820312499
3.4,0.01703548,0.019494094,0.05630718,0.016197625976562498,0.014468808
3.404,0.01703585,0.01949416,0.056308051,0.016197928,0.014470249
3.408,0.017036251953124998,0.019494262,0.05630252,0.016197659,0.014469311
3.412,0.017035313,0.019493391,0.056298257812499995,0.016197224,0.01446864
3.416,0.017034742,0.019493355468749998,0.056300941,0.016196218,0.014467198
3.42,0.017035145,0.019493959,0.056307343749999995,0.016196184,0.014466360351562499
3.424,0.017035078,0.019494799,0.056308148,0.016195815,0.014466192
3.428,0.01703518,0.019494262,0.056301781249999995,0.016194943,0.014466628906249999
3.432,0.017034844,0.019492787,0.056296852,0.016194206,0.014465857421874999
3.436,0.01703434,0.019491043,0.056299535,0.016194139,0.014464784179687499
3.44,0.017033736,0.019489869140624998,0.056305066,0.016194071,0.014465221
3.444,0.017032799,0.019489668,0.056305871093749994,0.016194307,0.014465857421874999
3.448,0.017032061,0.019489701,0.056301043,0.016195313,0.014467600585937499
3.452,0.017031054687499998,0.019490373,0.056297218749999996,0.016195681,0.014468372070312499
3.456,0.017029814,0.019490406249999998,0.056299332031249996,0.016194943,0.014466863281249999
3.46,0.017029781,0.019490406249999998,0.056304129,0.016194642,0.014464348632812499
3.464,0.017029511718749998,0.019490874999999998,0.056305066,0.016194675,0.014463913085937499
3.468,0.017028541,0.019491379,0.056300371093749996,0.016194976562499998,0.014464281249999999
3.472,0.017029042968749998,0.019492184,0.056296347656249995,0.016194709,0.014463577
3.476,0.017029646,0.019491713,0.056298695,0.016194373,0.014462102539062499
3.48,0.017029478515624998,0.019490976562499998,0.056303992,0.016195278,0.014462807
3.484,0.017029311,0.019491109,0.056305402,0.01619615,0.014464348632812499
3.488,0.017028641,0.019490809,0.056301379,0.016196117187499998,0.014464382
3.492,0.017027502,0.019489535156249998,0.056298496,0.016196485351562498,0.014464114257812499
3.496,0.017027301,0.019489232,0.056302550781249995,0.016196485351562498,0.01446408
3.5,0.017027132812499998,0.01949007,0.056309055,0.016196988281249998,0.014463008
3.504,0.017026863,0.019490740234374998,0.056310664062499995,0.016196653,0.014463142
3.508,0.017026595703124998,0.019490775,0.056305098,0.016196117187499998,0.014463778320312499
3.512,0.017027199,0.019490439453124998,0.056300672,0.016195446,0.014461901
3.516,0.017025926,0.019489736,0.056303656,0.016195010742187498,0.01446123
3.52,0.017024283,0.01948977,0.05631023,0.016195379,0.014462236
3.524,0.017024449218749998,0.019490304687499998,0.056312007812499995,0.016196218,0.014462438
3.528,0.017024785,0.019491310546874998,0.056306675781249996,0.016196552734374998,0.014462269531249999
3.532,0.017025221,0.019491580078124997,0.056302617,0.016196385,0.014461901
3.536,0.017026193,0.019491178,0.056305031,0.016196385,0.014459051
3.54,0.017026764,0.019490908,0.056310633,0.016196049804687498,0.014457811
3.544,0.01702777,0.019490976562499998,0.056311102,0.016196117187499998,0.014458984
3.548,0.017028171874999998,0.019491009765624998,0.056305636718749996,0.016196888,0.014461297851562499
3.552,0.01702807,0.019489970703124998,0.056301645,0.016196854,0.014461599609374999
3.556,0.017027803,0.019489266,0.056304227,0.016196284,0.01445942
3.56,0.017027466796874998,0.019488797,0.056310398,0.016196721,0.014458447265624999
3.564,0.017027466796874998,0.019489133,0.056311203,0.016196955,0.014458648437499999
3.568,0.017028607421874998,0.019489701,0.056304898,0.016196017,0.014458648437499999
3.572,0.017027434,0.019490037,0.05630007,0.016195681,0.014460124
3.576,0.0170271,0.019489098,0.056302753906249996,0.016195245,0.014459286132812499
3.58,0.01702777,0.019488127,0.056308585937499996,0.016196117187499998,0.014459755
3.584,0.017027869,0.019488059,0.056310094,0.016197189,0.014461029296874999
3.588,0.017027232,0.019488461,0.056303891,0.016196821,0.014460794921874999
3.592,0.017026697265624998,0.019487557,0.056298527343749995,0.016195949,0.014459956054687499
3.596,0.017026764,0.019486416,0.056301379,0.016194574,0.014456034179687499
3.6,0.017025121093749998,0.019486416,0.056307343749999995,0.016194507812499998,0.014456536
3.604,0.017023645,0.01948702,0.05630909,0.016195546874999998,0.014458481
3.608,0.017023779,0.019487523437499998,0.056304562499999995,0.016195681,0.014459587890624999
3.612,0.017024248,0.019487287109374998,0.056300773,0.016195815,0.014459755
3.616,0.017023512,0.019487253906249998,0.056303253906249996,0.016195043945312498,0.014458011718749999
3.62,0.01702217,0.019486617,0.056308484374999995,0.016195546874999998,0.014458548
3.624,0.017022338,0.01948665,0.056309391,0.016196620117187498,0.014459956054687499
3.628,0.017023076,0.019487523437499998,0.056304292968749996,0.016195748,0.014458884
3.632,0.017022371,0.019487557,0.05630034,0.016194608,0.014458246
3.636,0.017022236,0.019486785,0.056304027,0.016194642,0.014458045
3.64,0.017022404296874998,0.019486885,0.05631073,0.016194876,0.014457408
3.644,0.017023076,0.019487388671874998,0.056311133,0.016195212,0.014456838
3.648,0.017023544921874998,0.019487689,0.056304394531249996,0.016195546874999998,0.014458145507812499
3.652,0.017024115234374998,0.019487253906249998,0.056300472656249996,0.016195849,0.014459319
3.656,0.017024449218749998,0.019487053,0.056302718749999994,0.016195781,0.014459721679687499
3.66,0.017025523,0.019487455,0.056308352,0.016195882,0.014458950195312499
3.664,0.017026361,0.019487656,0.05630882,0.016196117187499998,0.014458648437499999
3.668,0.017024550781249998,0.019488127,0.056303253906249996,0.016195748,0.014458347
3.672,0.017023443359374998,0.019487891,0.056299301,0.016195043945312498,0.014456201171874999
3.676,0.017022506,0.019486281249999998,0.056302148,0.01619387,0.014454692382812499
3.68,0.017022305,0.019485545,0.056307313,0.016193837,0.014455463867187499
3.684,0.017022974609374998,0.019486416,0.056308352,0.016194541015624998,0.014454928
3.688,0.017023377,0.019487455,0.056302820312499995,0.016193467773437498,0.014453519531249999
3.692,0.017022002,0.019486449,0.05629816,0.016191925781249998,0.014453251
3.696,0.017021936,0.019485242187499998,0.056300640624999995,0.016191691,0.014453251
3.7,0.017022605,0.019485914062499998,0.056305301,0.016192428710937498,0.014453284
3.704,0.017022103515624998,0.019486785,0.056305902,0.016192864,0.014453720703124999
3.708,0.017022639,0.019487422,0.056299667968749995,0.016193032,0.01445486
3.712,0.017023443359374998,0.019487891,0.056294637,0.016192295,0.014454491
3.716,0.017022941,0.019487322,0.056297789,0.016191624,0.014452111
3.72,0.017023512,0.019486617,0.056303223,0.016192261,0.014451038
3.724,0.017023578,0.019486752,0.056304027,0.016193467773437498,0.014453787
3.728,0.017022773,0.019487891,0.056299601562499996,0.01619444,0.014456369
3.732,0.017021768,0.01948816,0.056296316,0.016194105,0.014457207031249999
3.736,0.017021633,0.019487221,0.056300269531249995,0.016193267,0.014455799
3.74,0.017022875,0.019486885,0.056306375,0.01619216,0.014452815
3.744,0.017023611,0.019486617,0.056306977,0.016192697,0.014454559
3.748,0.017024449218749998,0.019485713,0.056301613281249996,0.016193603,0.014455564
3.752,0.017023679687499998,0.019485143,0.056296816,0.0161932,0.014455431
3.756,0.017023479,0.019484908203124998,0.056299098,0.016192964843749998,0.014454390624999999
3.76,0.017024013671874998,0.019484941406249998,0.056304363,0.016192529,0.014452714843749999
3.764,0.017024518,0.019486014,0.056304695,0.01619263,0.014452647460937499
3.768,0.017024518,0.01948692,0.056299098,0.016193267,0.014453720703124999
3.772,0.017022941,0.019486719,0.056294371,0.016193301,0.014454156249999999
3.776,0.017022506,0.019485578,0.056297691406249996,0.016193603,0.014453955078124999
3.78,0.017023377,0.019485578,0.056303726562499996,0.01619387,0.014452881835937499
3.784,0.017024082,0.019486719,0.056304227,0.016194105,0.014454525390624999
3.788,0.017023947,0.019486617,0.056298227,0.016193804,0.014454994
3.792,0.017022773,0.019486248046874998,0.056294137,0.016193133,0.014454223632812499
3.796,0.017022305,0.019487086,0.056298293,0.016192597,0.014453887695312499
3.8,0.017021566,0.019487523437499998,0.056303960937499994,0.016192964843749998,0.01445305
3.804,0.0170216,0.019488193,0.056305133,0.016194473632812498,0.014454458007812499
3.808,0.017022035,0.019487824218749998,0.056299566406249994,0.016195614257812498,0.014456067
3.812,0.0170215,0.019487121,0.056295644531249994,0.016195278,0.014455296
3.816,0.0170215,0.019485914062499998,0.056297855,0.016194473632812498,0.014455296
3.82,0.017022103515624998,0.019484505859374997,0.056302988,0.01619481,0.014454425
3.824,0.017021365,0.019484539,0.056302684,0.016195781,0.01445486
3.828,0.017021029,0.019485677734374998,0.056295476562499995,0.016196117187499998,0.014455732421874999
3.832,0.017020058593749998,0.019485209,0.056290246093749996,0.016195614257812498,0.014456
3.836,0.01701942,0.019484203,0.056293835937499995,0.016194742,0.014455698242187499
3.84,0.017019386718749998,0.019483332031249998,0.056298496,0.016194172,0.014454156249999999
3.844,0.01701999,0.019482963,0.056297188,0.016194373,0.014453352
3.848,0.017020392578124998,0.019481822,0.056290312499999995,0.016194675,0.014454257
3.852,0.017018248,0.019480414,0.056285417968749994,0.016193568,0.014454223632812499
3.856,0.017015564,0.019479173828124998,0.056287531249999995,0.016192461914062498,0.014453720703124999
3.86,0.017015564,0.019478906,0.056292227,0.016192026,0.014451775
3.864,0.01701684,0.019478302734374998,0.056291351562499994,0.016192194,0.014451272
3.868,0.017017141,0.019478167968749998,0.056285082031249996,0.016191490234374998,0.014450635742187499
3.872,0.017016135,0.019476793,0.056280558593749995,0.016190819,0.014448758
3.876,0.017015129,0.019475051,0.056283105,0.016190686,0.014447686
3.88,0.017014795,0.019474144531249998,0.056287766,0.016190384,0.01444745
3.884,0.01701466,0.019474514,0.056288203,0.016189981445312498,0.014446880859374999
3.888,0.017015398,0.019474648,0.056282132812499996,0.016190148,0.014447651
3.892,0.017015297,0.019473977,0.056277707,0.016189947,0.014447518
3.896,0.017015699,0.019472703124999997,0.05628059,0.016189343749999998,0.014444735
3.9,0.017016705,0.019471965,0.056286289062499995,0.016188606,0.014442925
3.904,0.017017074,0.019471898,0.056285551,0.016187769,0.014442388
3.908,0.017016470703124998,0.019472268,0.056279046874999995,0.016187064,0.014442756835937499
3.912,0.017015297,0.019471932,0.056274555,0.016186595,0.014442891
3.916,0.017015096,0.019471965,0.056277406249999995,0.01618626,0.014441449
3.92,0.017014928,0.019471598,0.056281898,0.016185488,0.014439706
3.924,0.017014627,0.019470625,0.056281863,0.016185455,0.014440645
3.928,0.017013855,0.01947049,0.056276566,0.016186159,0.014442522
3.932,0.017012916,0.019470222656249998,0.05627268,0.016185153,0.014442287
3.936,0.017012682,0.019469183593749998,0.056275695,0.016183745,0.014440543945312499
3.94,0.017012514,0.019469283,0.056281129,0.016184382,0.014442052734374999
3.944,0.017012346,0.019469283,0.056281328124999995,0.016184885,0.014442287
3.948,0.017011876953124998,0.019469148,0.056275359,0.016184416015624998,0.014440007812499999
3.952,0.01701134,0.01946868,0.056270766,0.01618331,0.014438934570312499
3.956,0.017010805,0.019467373,0.056273113281249995,0.016182471,0.014438264
3.96,0.017009261718749998,0.019466938,0.056278578,0.01618331,0.014439035
3.964,0.017008121,0.019467809,0.056278813,0.016184449,0.014438800781249999
3.968,0.017007249999999998,0.019468346,0.056274253906249995,0.01618455,0.014437928710937499
3.972,0.017005910156249998,0.01946801,0.056270766,0.016183577,0.014436855468749999
3.976,0.017005742,0.019467004,0.056273785,0.016182136,0.014435045898437499
3.98,0.017005406,0.019466098,0.056279082,0.016181364,0.014432766
3.984,0.017004904296874998,0.019466367,0.056279449,0.016181063,0.01443357
3.988,0.017004971,0.019466836,0.056274152343749995,0.01618113,0.014434173828124999
3.992,0.017004467,0.019466938,0.056270499999999994,0.016181029,0.014434442
3.996,0.017002557,0.019466266,0.056274187499999996,0.016180459,0.014432665039062499
4,0.01700249,0.019464959,0.056279148437499996,0.016179722,0.01443062
4.004,0.017003226562499998,0.019464019531249998,0.056278378906249996,0.016179387,0.014429681
4.008,0.01700316,0.019463718749999998,0.056272043,0.016179151,0.014428407226562499
4.012,0.017003629,0.01946298,0.056267582,0.016177274414062498,0.014425958984374999
4.016,0.017003328124999998,0.019461873046874998,0.056269762,0.016175330078124998,0.014424215820312499
4.02,0.017002791015624998,0.019461136718749997,0.056274453,0.016174525,0.014425289062499999
4.024,0.017001886718749998,0.019460431640624998,0.056274957031249996,0.016175195312499998,0.014428407226562499
4.028,0.017000041,0.019459392578124998,0.056269292968749995,0.016174324218749998,0.014425355
4.032,0.016996722656249998,0.019457984374999997,0.056264898437499995,0.016172647,0.014425154
4.036,0.016994174,0.019456609,0.056267281249999995,0.016172346,0.014425725
4.04,0.016992398,0.019455303,0.056271035156249996,0.016172211914062498,0.014424953124999999
4.044,0.016991023,0.019454867,0.056270265624999996,0.016172479,0.014426295
4.048,0.01699015,0.019453559,0.056264062499999996,0.016171071,0.014424652343749999
4.052,0.016989111,0.019450943,0.056258395,0.016170065429687498,0.014424517578124999
4.056,0.016987133,0.019448496,0.056260238,0.016168993,0.014422271484374999
4.06,0.016985256,0.019445748,0.056264730468749996,0.016167585,0.014420192382812499
4.064,0.016983646,0.019444473,0.05626366,0.016166612304687498,0.014420830078124999
4.068,0.016980697,0.019442796874999998,0.056257559,0.016166546,0.014423344726562499
4.072,0.01697674,0.019440919921874997,0.056253098,0.016165204,0.014422037109374999
4.076,0.016973521,0.019439008,0.056256183593749995,0.016164869,0.014422238
4.08,0.016971645,0.019437398,0.056261246093749995,0.016166009,0.014422774414062499
4.084,0.016970605,0.019436393,0.056260609,0.016166612304687498,0.014422942
4.088,0.01696876,0.01943542,0.05625434,0.016166378,0.014425322265624999
4.092,0.01696648,0.019433005859374998,0.056249914062499996,0.016164836,0.01442539
4.096,0.016964838,0.019430928,0.056252563,0.016162689,0.014422002929687499
4.1,0.016962826,0.019430123046874997,0.056257691,0.016162689,0.014421735
4.104,0.016961586,0.019429787,0.056257727,0.016163192,0.014422171
4.108,0.016960715,0.019428883,0.05625159,0.016162086,0.014420830078124999
4.112,0.016959541,0.019428379,0.056247531249999996,0.016160678,0.014419991
4.116,0.016958836,0.019427307,0.056251422,0.016160209,0.014420025390624999
4.12,0.016958535,0.019425832,0.056256015624999996,0.016159470703124998,0.014418248046874999
4.124,0.016958300781249998,0.019425363,0.056254605468749996,0.01615927,0.014418147
4.128,0.016958434,0.019425195,0.056248070312499995,0.016159169,0.014417343
4.132,0.016957563,0.019424994,0.056243843749999994,0.016158331,0.014414594
4.136,0.016954881,0.019423854,0.056247566,0.016157929,0.014413118164062499
4.14,0.016953439,0.019424391,0.05625377,0.016157961914062498,0.014414191406249999
4.144,0.016953037,0.019424490234374998,0.056253902343749995,0.016158935,0.014414795
4.148,0.016952266,0.01942382,0.056248707,0.016159169,0.014415934570312499
4.152,0.016952434,0.019423115,0.056245753906249994,0.016158633,0.014417242
4.156,0.016951158,0.019422445312499998,0.056249542968749996,0.016157259,0.014417275
4.16,0.016948978515624998,0.019422211,0.056254305,0.016156822,0.014416001953124999
4.164,0.016949014,0.019423217,0.056254035,0.016157929,0.014417242
4.168,0.016947438,0.019423316,0.056249074,0.016159470703124998,0.014421198242187499
4.172,0.016945795,0.019421977,0.056245789062499996,0.016158967773437498,0.014422002929687499
4.176,0.016945426,0.019420635,0.056249309,0.016157493164062498,0.014418750976562499
4.18,0.016946297,0.0194204,0.056254305,0.016157091,0.014417343
4.184,0.016949146,0.019421506,0.056253938,0.016156822,0.01441466
4.188,0.016950053,0.019421506,0.056248336,0.016157526367187498,0.014416068
4.192,0.01695002,0.01942107,0.056245422,0.016158063,0.014416739
4.196,0.016950085937499998,0.019420602,0.056249710937499996,0.016158666,0.014416203124999999
4.2,0.016950656249999998,0.019420803,0.056255613,0.016158499023437498,0.01441399
4.204,0.016951662109374998,0.019420902343749998,0.056254874999999996,0.016159236,0.014414392578124999
4.208,0.016952365,0.019420701,0.05624941,0.016159907,0.014416035
4.212,0.016953404,0.01942107,0.056247597656249995,0.016159337,0.014415867187499999
4.216,0.016954277,0.019422076,0.056252761718749995,0.01615823,0.014413454101562499
4.22,0.016955283203124998,0.019423184,0.056258695312499996,0.016156856,0.014409698
4.224,0.016957361,0.019424156249999998,0.056258093749999995,0.016156051757812498,0.014408123046874999
4.228,0.0169584,0.019424121,0.056252258,0.016155414062499998,0.014408425
4.232,0.016958064453124998,0.019424256,0.056250249999999995,0.016155313,0.014408525
4.236,0.016958803,0.019423719,0.056254773437499996,0.016154644,0.014406145
4.24,0.016959809,0.019423787,0.056260945,0.016153872,0.014404837
4.244,0.016960781249999998,0.019423652,0.056260543,0.016154141,0.014403831
4.248,0.016962055,0.019423919921874998,0.056255109,0.016154442,0.014404568
4.252,0.016963664062499998,0.019425094,0.056252426,0.016154609,0.014405071
4.256,0.016963664062499998,0.019425664,0.056255781,0.016153905273437498,0.014403396
4.26,0.016963967,0.019425597656249998,0.056260441,0.016153336,0.014401115
4.264,0.016963766,0.019425496093749998,0.05626034,0.016153872,0.014402457
4.268,0.016963496,0.019426871,0.056255547,0.016154978515624998,0.014405071
4.272,0.016963933593749998,0.019427609374999998,0.056251859,0.016154811,0.014403161
4.276,0.016964234374999998,0.019427039,0.056255812499999995,0.016154744,0.014402490234374999
4.28,0.016965643,0.019427943359374998,0.056261914062499994,0.016154911132812498,0.014402523
4.284,0.016967789,0.01942915,0.056262555,0.016155816,0.014403328
4.288,0.016967822265624998,0.019430089843749998,0.056257793,0.01615766,0.014405775390624998
4.292,0.016967285156249998,0.019430828,0.056253668,0.016158264,0.014406043945312499
4.296,0.016966883,0.019430660156249998,0.056258128906249996,0.016158532226562498,0.014407687
4.3,0.016967855468749998,0.019431230468749998,0.056263793,0.016157158,0.014405239257812499
4.304,0.01697084,0.019431967,0.056263223,0.016157023437499998,0.014405574
4.308,0.016971846,0.019431432,0.056258766,0.01615766,0.014405843
4.312,0.016971543,0.019431195,0.056256449,0.016158063,0.014405742187499999
4.316,0.016970672,0.019431531,0.056260945,0.01615823,0.014406245117187499
4.32,0.016970369,0.019431799,0.056266273,0.016158867,0.014408189
4.324,0.016971041,0.019433242187499998,0.056265637,0.016159102539062498,0.014407351562499999
4.328,0.016971477,0.019434348,0.056260609,0.016159706,0.014407955
4.332,0.01697151,0.019433979,0.056258262,0.01615994,0.014408357421874999
4.336,0.016972047,0.019433845703124997,0.056261949218749996,0.01615937,0.014406245117187499
4.34,0.016971813,0.019433912,0.056267011718749996,0.016160611328124998,0.014408290039062499
4.344,0.016972582,0.019435219,0.056266676,0.016161617187499998,0.014406849
4.348,0.016971443359374998,0.019437064,0.056261582,0.016163025,0.014407419
4.352,0.016971443359374998,0.019437332,0.056257391,0.016163025,0.014406278320312499
4.356,0.016971744140624998,0.019436158203124998,0.056260874999999995,0.016163125976562498,0.014406145
4.36,0.01697027,0.019436626953124998,0.056266742187499996,0.016163964,0.014408022
4.364,0.016970001953124998,0.019438203124999998,0.056265637,0.016164467,0.014407787109374999
4.368,0.016972215,0.019437432,0.05625843,0.016164668,0.014409028
4.372,0.016973353515624998,0.019435656,0.056253332,0.016164937,0.014410671
4.376,0.016975164,0.019435186,0.056255074,0.016164802,0.014408055664062499
4.38,0.01697607,0.019434615234374997,0.056259434,0.016164836,0.014407620117187499
4.384,0.01697674,0.019435521,0.056259234374999995,0.016166043,0.014409128906249999
4.388,0.016976639,0.019436059,0.056254371,0.016165673828124998,0.01440876
4.392,0.0169756,0.019436393,0.056252258,0.016165137695312498,0.014409967
4.396,0.016977008,0.019437465,0.056256351562499994,0.016164701,0.014405071
4.4,0.016977479,0.019437197265624997,0.056261109,0.016165305,0.014405742187499999
4.404,0.016976539,0.019437834,0.056260808593749996,0.016166747070312498,0.014408727
4.408,0.016976908,0.01943884,0.056254238,0.016166176757812498,0.014408525
4.412,0.016977008,0.019439914,0.056251289062499994,0.016164567382812498,0.014407452
4.416,0.016977511718749998,0.019440316406249998,0.056256082031249995,0.016163997,0.014407854492187499
4.42,0.016977109,0.019440885,0.056262285156249994,0.016164802,0.014408391
4.424,0.016977746,0.019442764,0.056261042968749994,0.016164399,0.014407083
4.428,0.016976472656249998,0.019443097656249998,0.056255379,0.016164299,0.014408458
4.432,0.016976137,0.019441053,0.05625273,0.016164534,0.014410369140624999
4.436,0.016980295,0.019440148,0.056255980468749994,0.016163628906249998,0.014407754
4.44,0.016977109,0.019441287,0.056261379,0.016165238,0.014408827
4.444,0.016977914,0.019442529,0.056259871,0.016167049,0.014410939453124999
4.448,0.01698177,0.019441121,0.056253398,0.016166479,0.014409766
4.452,0.01698234,0.019440182,0.056249980468749995,0.016165673828124998,0.014411777
4.456,0.016982842,0.019440182,0.056253632812499996,0.016165875,0.014412414
4.46,0.016982809,0.019439846,0.056258461,0.016166646484374998,0.014413219
4.464,0.016982139,0.019439746093749998,0.056257757812499996,0.016168289,0.014414861328124999
4.468,0.016981433593749998,0.019440248,0.056252160156249995,0.016168758,0.014415163
4.472,0.016982003906249998,0.019440852,0.056248906249999994,0.016166981,0.014412313476562499
4.476,0.016981869140624998,0.019440080078124998,0.056253398,0.016166411,0.014411543
4.48,0.016982439453124998,0.019438941,0.056259301,0.016166109374999998,0.014410771
4.484,0.016981064,0.019438873,0.056258461,0.016166546,0.014412146484374999
4.488,0.016981938,0.019439175781249998,0.056251722656249996,0.016165808,0.01441171
4.492,0.016980461,0.019438068359374998,0.056249578,0.016165473,0.014412481
4.496,0.016978584,0.0194375,0.056254941406249995,0.01616621,0.014412851
4.5,0.016979053,0.019438068359374998,0.056260207031249995,0.016165908,0.014409028
4.504,0.016978887,0.019438740234374998,0.056260441,0.016166948,0.014410637695312499
4.508,0.016979623,0.019440115,0.056255379,0.016166345,0.014407854492187499
4.512,0.016979992,0.019440785156249998,0.056252395,0.016165774,0.014405608398437499
4.516,0.016979121,0.019440986,0.056256383,0.01616554,0.014404502
4.52,0.016979388671874998,0.019441824,0.056261781,0.01616554,0.014405038085937499
4.524,0.016979992,0.019442461,0.056261613,0.016165473,0.014406312499999999
4.528,0.016979958984374998,0.01944216,0.056255277,0.016164198,0.014405574
4.532,0.016979154,0.019441523,0.056251890624999995,0.016163594726562498,0.01440544
4.536,0.016979188,0.019440617,0.05625568,0.016163227,0.014404166015624999
4.54,0.01697949,0.019438873,0.056260374999999994,0.016164131835937498,0.0144041
4.544,0.016980863281249998,0.019437599609374998,0.056259602,0.016165170898437498,0.014404668945312499
4.548,0.016981367,0.019437632812499998,0.056254003906249996,0.016164769,0.014406178
4.552,0.016980496,0.019437197265624997,0.056250582031249996,0.016163695,0.014407787109374999
4.556,0.016979355,0.019436158203124998,0.056254438,0.01616326,0.014406278320312499
4.56,0.016980361,0.019436828,0.056259335937499995,0.01616279,0.014404367
4.564,0.016982003906249998,0.019437599609374998,0.056257859,0.016162958,0.014405172
4.568,0.016981099609374998,0.019438404,0.056253398,0.016163695,0.014407419
4.572,0.016980529296874998,0.019438304687499998,0.056252058593749994,0.016164299,0.014408123046874999
4.576,0.016980328,0.019437632812499998,0.05625759,0.016164802,0.014408592
4.58,0.016981467,0.019437098,0.056261816,0.016164232,0.014409295898437499
4.584,0.016982238,0.019436863281249998,0.056259769531249997,0.016164064453124998,0.014410804687499999
4.588,0.016981334,0.019436494,0.056254605468749996,0.016164769,0.014412348
4.592,0.016981266,0.01943693,0.056252629,0.016164299,0.014412313476562499
4.596,0.016980932,0.01943693,0.056257488,0.016164802,0.014411442382812499
4.6,0.016980697,0.01943723,0.056263559,0.016165774,0.014409866210937499
4.604,0.016980529296874998,0.019438104,0.056263324,0.016166311,0.014410905
4.608,0.016981367,0.019439578,0.056257457,0.016166981,0.014410537
4.612,0.016979758,0.019439611,0.05625541,0.016167351,0.014410301757812499
4.616,0.016979388671874998,0.019439074218749998,0.056259937499999996,0.01616678,0.014408425
4.62,0.016980697,0.01943941,0.056264898437499995,0.016165707,0.014407754
4.624,0.016980764,0.019440148,0.056263559,0.016166445,0.014408625976562499
4.628,0.016980764,0.019440281,0.05625816,0.016167249999999998,0.014409598
4.632,0.016980059,0.019439443,0.056254671874999995,0.016166747070312498,0.014409363281249999
4.636,0.016979824,0.019439611,0.056258766,0.016166411,0.014409531
4.64,0.016979958984374998,0.019439377,0.056263492,0.016165808,0.014406748
4.644,0.016979388671874998,0.019439746093749998,0.056261816,0.016165875,0.014407653
4.648,0.016979926,0.019439914,0.05625568,0.016165339,0.014407485351562499
4.652,0.016979656,0.019438539,0.056251824218749996,0.016164735,0.01440591
4.656,0.016978283,0.019436896,0.056255074,0.016164735,0.014405239257812499
4.66,0.016977176,0.019435488,0.056260140624999996,0.016165070312499998,0.014405508
4.664,0.016977812499999998,0.019435891,0.056259769531249997,0.016165908,0.014406546874999999
4.668,0.01697741,0.019436662,0.056254508,0.016166176757812498,0.014407419
4.672,0.016975398,0.019435555,0.056251422,0.016166143554687498,0.014407922
4.676,0.016973756,0.01943475,0.056255613,0.016166813,0.014408558593749999
4.68,0.016973353515624998,0.019434615234374997,0.056260105468749995,0.016167316,0.014406748
4.684,0.016973521,0.019435219,0.056258195312499995,0.016168222,0.014408156
4.688,0.016973119,0.019435253906249998,0.056251152,0.016168021,0.014408425
4.692,0.016971846,0.019434414,0.056247465,0.016167819,0.014408558593749999
4.696,0.016971576,0.01943351,0.056251355,0.016167719,0.014407452
4.7,0.016972113,0.019432705078124998,0.056255949,0.016167351,0.014406781249999999
4.704,0.016972248,0.019432939,0.056254238,0.016167049,0.014406681
4.708,0.016971979,0.019432101562499998,0.056247031249999996,0.016166948,0.014408089
4.712,0.01697208,0.019431396,0.056242672,0.016165506,0.014406446
4.716,0.016972449218749998,0.019431230468749998,0.056245117,0.016163628906249998,0.014401819
4.72,0.016972918,0.019431029,0.056248906249999994,0.016162857,0.014399908203124999
4.724,0.016972984,0.019430828,0.056246828124999995,0.016162287,0.014400579
4.728,0.01697208,0.019430861,0.056239484374999996,0.016161315,0.014401484374999999
4.732,0.016971041,0.019430660156249998,0.05623707,0.016160577,0.014402422851562499
4.736,0.016972146,0.019430123046874997,0.056242438,0.016160543945312498,0.014401819
4.74,0.016972248,0.019428447,0.056247195,0.01616031,0.014399875
4.744,0.016971678,0.019427441,0.056245753906249994,0.016160343,0.014400209960937499
4.748,0.016970705,0.019427172,0.05623952,0.016158767,0.014398735351562499
4.752,0.016969029,0.019427072265624998,0.056236367,0.016157091,0.014399573
4.756,0.016969063,0.019427373046874998,0.056240523437499995,0.016156856,0.014398031249999999
4.76,0.016969063,0.019427105,0.056244449,0.016157458984374998,0.014397192
4.764,0.016969465,0.019427172,0.056242504,0.016157023437499998,0.014396321
4.768,0.016968123,0.019427273,0.056236433593749996,0.016156521,0.01439555
4.772,0.016965039,0.019426402,0.056234421874999996,0.016156387,0.01439679
4.776,0.016963195,0.019424893,0.056238949,0.016155348,0.014396287
4.78,0.016962928,0.019424893,0.056243543,0.016154945,0.014396455078124999
4.784,0.016962893,0.019425027343749998,0.056242203124999994,0.016155213,0.014396556
4.788,0.01696249,0.019425463,0.056236301,0.016155146,0.01439394
4.792,0.016961082031249998,0.019425865,0.056233718749999995,0.016154609,0.0143927
4.796,0.01695991,0.019425697,0.056237574218749996,0.016153805,0.014392129882812498
4.8,0.016958703,0.019425262,0.056241699218749996,0.016154073,0.014393672
4.804,0.016958736328124998,0.019424658,0.056240762,0.016154207,0.014394711914062499
4.808,0.016959171874999998,0.01942382,0.056234656,0.016153972656249998,0.014394611
4.812,0.016957797,0.019423652,0.056232715,0.016153872,0.014394644531249999
4.816,0.016956893,0.019423184,0.05623818,0.016153201,0.014390789
4.82,0.016955518,0.019422043,0.056243609374999996,0.016152229,0.014388979
4.824,0.016955248,0.01942268,0.056241597656249996,0.016153101,0.014387872
4.828,0.016953673828124998,0.019422512,0.056234792968749996,0.016152899414062498,0.014388174
4.832,0.016950990234374998,0.019421742,0.05623184,0.016151994,0.014388106
4.836,0.016949515624999998,0.019421172,0.056235965,0.016151189,0.014387235
4.84,0.016949984374999998,0.019421205,0.056239418,0.016150653,0.014386732
4.844,0.016950689,0.019421977,0.056237140624999994,0.016149614,0.014385324218749999
4.848,0.016950521484374998,0.019421607,0.056231305,0.016148574,0.014384318359374999
4.852,0.016949515624999998,0.019420132812499998,0.056228656249999995,0.016147367,0.014384419
4.856,0.016948879,0.019419662,0.056233718749999995,0.016146697,0.014383882
4.86,0.016949852,0.01941973,0.056238914,0.016146999,0.01438415
4.864,0.016950623,0.019419395,0.056237977,0.016147166,0.014385189453124999
4.868,0.016951662109374998,0.019419126953124997,0.056232613281249996,0.016146965,0.014385156
4.872,0.016951996093749998,0.019418725,0.056229828,0.016146429,0.01438405
4.876,0.016951594,0.019417281249999998,0.056233550781249995,0.016145591,0.014383111
4.88,0.01695183,0.019416678,0.056238348,0.016145691,0.014382541
4.884,0.016952031,0.019416275390624998,0.056237238,0.016146831054687498,0.014383212
4.888,0.016951795,0.019415605,0.056230535,0.016146831054687498,0.014383614
4.892,0.016950488,0.019415137,0.056227886718749995,0.016145759,0.014383949218749999
4.896,0.016949380859374998,0.019414633,0.056232511718749996,0.016145658,0.014381032
4.9,0.016948309,0.019414230468749998,0.056237004,0.016145558,0.014380295
4.904,0.016947336,0.019414499999999998,0.056234992,0.01614549,0.014380529
4.908,0.016946264,0.019414266,0.056228824,0.016144753,0.014379893
4.912,0.016945357421874998,0.019412857,0.056226609,0.016143612,0.014379792
4.916,0.016944084,0.019411113,0.056231004,0.016142875,0.014378149
4.92,0.016941973,0.019410408,0.056236066,0.016142674,0.014377512
4.924,0.0169411,0.019410408,0.056234523437499996,0.016142707,0.014377813
4.928,0.016940564453124998,0.019410341796874998,0.056228355,0.016143512,0.014380194335937499
4.932,0.016940531249999998,0.019409402,0.056224835937499995,0.016142674,0.014378182617187499
4.936,0.016939123,0.019407592,0.056228859374999995,0.016141735,0.014376304687499999
4.94,0.016938352,0.019406252,0.056233148,0.01614197,0.014377914062499999
4.944,0.016938686,0.019406084,0.056229664,0.016140461,0.014376641
4.948,0.016937445,0.019405414062499998,0.056221883,0.016139086,0.014375936523437499
4.952,0.016936674,0.01940367,0.056218063,0.016137376,0.014373824
4.956,0.016935367187499998,0.019401625,0.056221047,0.016135633,0.014370438
4.96,0.016932818,0.019399881,0.056224464843749995,0.016134594,0.014369800781249999
4.964,0.016930842,0.019398875,0.05622232,0.016134493,0.014371645
4.968,0.016929668,0.019398373,0.056216117,0.016134862,0.014372918945312499
4.972,0.016926482,0.019396092,0.056213570312499996,0.016134862,0.014374059
4.976,0.016925543,0.019393846,0.056217324218749996,0.016133319,0.014370874023437499
4.98,0.016925375,0.019392807,0.056220374999999996,0.01613171,0.014370035156249999
4.984,0.016924035,0.01939207,0.056217426,0.016130369,0.014369063
4.988,0.016921822,0.019390023,0.056209578,0.016129799,0.014369633
4.992,0.016920682,0.019388482,0.056205992,0.016128491,0.014368828
4.996,0.016919375,0.019386638671874998,0.05620968,0.016127721,0.014367051757812499
5,0.016917799,0.019385799,0.056213836,0.016127585937499998,0.014367957
5.004,0.016916624999999998,0.019386035,0.056212765624999994,0.016128055664062498,0.014369432
5.008,0.016915553,0.019386303,0.056206996093749996,0.016127955,0.014370572
5.012,0.016914814,0.019384592,0.056203578,0.016126715,0.014369265
5.016,0.016914514,0.019383351562499998,0.0562075,0.016126982421874998,0.014369197
5.02,0.016913674,0.019382715,0.056212261718749996,0.016127955,0.014368762
5.024,0.016912803,0.019383351562499998,0.056210352,0.01612933,0.01437094
5.028,0.016912971,0.019383318,0.056202640624999994,0.016128391,0.014366715820312499
5.032,0.016912334,0.019382447265624998,0.056198113281249996,0.01612658,0.014365576
5.036,0.016912132812499998,0.019381174,0.056200960937499995,0.01612581,0.014365644
5.04,0.016911764,0.019380736,0.056205992,0.016126245,0.014366884
5.044,0.016912703124999998,0.019381609,0.056204617,0.016127653,0.014368393
5.048,0.0169124,0.019381609,0.056198684,0.016128088867187498,0.014367789062499999
5.052,0.016911797,0.019381609,0.056195633,0.016126614257812498,0.01436675
5.056,0.016912433593749998,0.019381943,0.056199656,0.016125239,0.014364872
5.06,0.016913205,0.019382145,0.056204816,0.016125206,0.014363866
5.064,0.016911629,0.019382381,0.056204047,0.016127485,0.014366280273437499
5.068,0.016911061,0.019382111,0.05619902,0.016128625976562498,0.014366850585937499
5.072,0.016911328,0.019381742,0.056197609,0.016128123046874998,0.014365274414062499
5.076,0.01691049,0.019381777,0.056202640624999994,0.016127352,0.014362893554687499
5.08,0.016910256,0.019382078,0.056207566,0.016128156,0.014363162
5.084,0.016909652343749998,0.019382783,0.056205253906249995,0.016128827,0.014363463867187499
5.088,0.016907773,0.019383351562499998,0.056199586,0.016129531,0.014365207031249999
5.092,0.016906533,0.019383017578124998,0.056198113281249996,0.016129866,0.014365073
5.096,0.016906098,0.019383084,0.05620398,0.01613047,0.014362827
5.1,0.016906266,0.019383351562499998,0.056209578,0.016130939,0.014361519531249999
5.104,0.01690717,0.01938352,0.056207535156249995,0.016130067,0.014359641601562499
5.108,0.016907371093749998,0.019384291,0.056201867,0.016129899,0.014362491
5.112,0.016908008,0.019384927734374998,0.056200863,0.01612876,0.014361352
5.116,0.016908578,0.019384525,0.056205421874999995,0.016128123046874998,0.014359273437499999
5.12,0.016908611,0.019385432,0.056211085937499995,0.016129028,0.014359641601562499
5.124,0.016909383,0.019386771,0.05620998,0.01613,0.014359072
5.128,0.016910556640624998,0.019387477,0.056204582,0.016130839,0.01435867
5.132,0.016910791,0.019386537109374997,0.056202438,0.016130738281249998,0.014357395507812499
5.136,0.016911361,0.01938627,0.056206898,0.016130939,0.014356389648437499
5.14,0.01691277,0.019386738,0.056212363,0.016131241210937498,0.014356591
5.144,0.016912869,0.019387242,0.056211793,0.016131644,0.014357462890624999
5.148,0.016913037,0.019387174,0.056205824,0.016131274,0.014356959960937499
5.152,0.016913875,0.019387309,0.056203277,0.016130336,0.014356658203124999
5.156,0.016913977,0.019387879,0.056207902,0.01613,0.014355149414062499
5.16,0.016914445,0.019389354,0.056212461,0.016129564,0.014353842
5.164,0.016915117,0.019389689453124997,0.056211019531249996,0.016129431,0.014354546
5.168,0.016915451,0.019389756,0.056206094,0.016130269,0.014356121093749999
5.172,0.016915787,0.019390158,0.056204214843749996,0.016130167968749998,0.014355618164062499
5.176,0.016915887,0.019389990234374998,0.056208941,0.016129263,0.014353942
5.18,0.016917060546874998,0.019389891,0.056213468749999995,0.016129229,0.014355383789062499
5.184,0.016918135,0.019390425781249998,0.056212027,0.016130235351562498,0.014355954101562499
5.188,0.016918537,0.019390795,0.056206629,0.016130503,0.014356624023437499
5.192,0.016919475,0.019390896,0.056203242187499995,0.016128928,0.014355015
5.196,0.016920715,0.019390594,0.056207398,0.016127721,0.014354948242187499
5.2,0.01692152,0.019391164,0.056212293,0.016128491,0.014357529
5.204,0.016922660156249998,0.019391768,0.056210988,0.016129564,0.014357898437499999
5.208,0.016922861,0.01939217,0.056205656,0.016130034,0.014358132812499999
5.212,0.016922324,0.019392338,0.056203445312499996,0.016129597656249998,0.014358132812499999
5.216,0.016922426,0.01939207,0.056207902,0.016129396,0.014356055
5.22,0.016923063,0.019392305,0.056213,0.016129899,0.014355383789062499
5.224,0.016924203,0.019393242,0.056212261718749996,0.016130201,0.014355351
5.228,0.016924771,0.019393779,0.056206359,0.016129431,0.014355954101562499
5.232,0.016925710937499998,0.019393377,0.056204652343749995,0.016127721,0.01435421
5.236,0.016926549,0.019393512,0.056209313,0.016126982421874998,0.01435354
5.24,0.016925576171874998,0.019393914,0.056214070312499996,0.016127552734374998,0.014353606
5.244,0.016926314,0.019394082,0.056212597656249995,0.016128692,0.014354612
5.248,0.016927185546874998,0.019394316,0.056206292968749995,0.016129431,0.014355183
5.252,0.016927455,0.019393512,0.056204281249999995,0.016129229,0.014353338867187499
5.256,0.016927287109374998,0.019393142578124998,0.056209378906249996,0.01612933,0.014353037
5.26,0.016927119,0.019394181640624997,0.056214004,0.016129899,0.014354076171874999
5.264,0.016927119,0.019395088,0.056212160156249996,0.016131274,0.01435592
5.268,0.016926984,0.019395891,0.056206828,0.016130939,0.014355283
5.272,0.016927623,0.019394986,0.056205219,0.016129899,0.014353606
5.276,0.016928527,0.019393914,0.056209949,0.016129597656249998,0.014353104
5.28,0.016928092,0.019393645,0.056214473,0.016130167968749998,0.014354043
5.284,0.016927086,0.019394181640624997,0.056212664,0.016130603515624998,0.014354914
5.288,0.016926381,0.019394986,0.056205387,0.016130905,0.014354813476562499
5.292,0.01692665,0.01939398,0.056199855,0.016130402,0.014353674
5.296,0.016926281249999998,0.019393007812499998,0.056200089843749995,0.016130235351562498,0.014351192
5.3,0.016926014,0.019392639,0.056199855,0.016130034,0.014349081054687499
5.304,0.016925041,0.019393209,0.056194054687499995,0.016130771,0.014349046874999999
5.308,0.016924168,0.019393142578124998,0.056185874999999996,0.016130369,0.014348913
5.312,0.016922996,0.019392975,0.056181316,0.01613057,0.014350925
5.316,0.016922561,0.019392572265624998,0.056183023,0.016131442,0.014353137695312499
5.32,0.016922727,0.019392773,0.056184535,0.016132381,0.014354411
5.324,0.016924102,0.019393947,0.056179641,0.016132682617187498,0.014353439
5.328,0.016925209,0.01939435,0.056170555,0.016132414,0.014353104
5.332,0.016925777,0.019393512,0.056165992,0.016131845,0.014353070312499999
5.336,0.016926215,0.019392404,0.056167871093749995,0.016131308,0.014352567382812499
5.34,0.016926348,0.019391936,0.056170387,0.016131777,0.014353338867187499
5.344,0.01692675,0.019393007812499998,0.056166965,0.016131744140624998,0.014353037
5.348,0.016926014,0.01939341,0.056159859374999996,0.016131241210937498,0.014352499999999999
5.352,0.016925477,0.019392506,0.056157074,0.016130201,0.014351092
5.356,0.016925879,0.019391969,0.056161398437499996,0.016130067,0.014349718
5.36,0.016925342,0.019392236,0.056164988281249995,0.01613104,0.014350791
5.364,0.016925242187499998,0.01939284,0.056161734374999994,0.016133085,0.014352634765624999
5.368,0.016924873,0.019393209,0.056155699,0.016133655,0.014351058593749999
5.372,0.016923766,0.019392473,0.056153453124999995,0.016133722,0.014352534
5.376,0.016922828,0.019391936,0.056157374999999995,0.016133621093749998,0.014353137695312499
5.38,0.016923029,0.019391969,0.056161098,0.016134225,0.014352769
5.384,0.016923363,0.019392506,0.05615818,0.016134526,0.014353204
5.388,0.016923297,0.019392473,0.056152348,0.016134325,0.014352499999999999
5.392,0.016923699218749998,0.019391667968749998,0.056150234,0.016133018,0.014351125976562499
5.396,0.016923834,0.019390527,0.056153219,0.016131241210937498,0.014349483
5.4,0.016924269531249998,0.019389857,0.05615627,0.016130369,0.014349852
5.404,0.016924269531249998,0.019389521,0.056153086,0.016130670898437498,0.014352499999999999
5.408,0.016924168,0.019388984374999998,0.056145609374999995,0.016130269,0.014351695
5.412,0.016924404,0.019388783,0.056142691,0.016129162109374998,0.014350388671874999
5.416,0.016924873,0.019388951,0.056146715,0.016128357,0.014349449
5.42,0.016924873,0.019389689453124997,0.056150035,0.016128625976562498,0.014350086914062499
5.424,0.016924537,0.019391130859374998,0.056147219,0.016129497,0.014350857
5.428,0.016925342,0.019392539,0.056140781,0.016129028,0.014352031
5.432,0.016925275390624998,0.019391801,0.056138230468749994,0.016128324,0.014350522
5.436,0.016924738,0.019390560546874998,0.056141852,0.016128491,0.014349852
5.44,0.016924672,0.019390627,0.056145844,0.016129128906249998,0.014349449
5.444,0.016924438,0.019391633,0.056144504,0.016130067,0.014352298828124999
5.448,0.016925342,0.0193915,0.056138265624999996,0.016129833,0.014351863
5.452,0.016924471,0.019390259765624997,0.056136152343749995,0.016129833,0.014352131835937499
5.456,0.016924269531249998,0.019390627,0.056141214843749995,0.016130269,0.014351863
5.46,0.016922525,0.019392035156249997,0.056146480468749996,0.016131006,0.014351394
5.464,0.016922258,0.019392371,0.056143965,0.016131911,0.01435136
5.468,0.016922191,0.019392941,0.056138066,0.016132079,0.014351259765624999
5.472,0.016920951,0.019391969,0.056135820312499994,0.016131342,0.01435002
5.476,0.016919709,0.01939123,0.056140445312499995,0.016131342,0.014350354
5.48,0.016920111,0.019391398,0.056144468749999996,0.016131878,0.014351192
5.484,0.016920916,0.019392605468749997,0.056142992,0.016132582,0.014352902
5.488,0.016921654296874998,0.019393041015624998,0.056136992,0.016131878,0.014350288
5.492,0.016922089843749998,0.019393041015624998,0.056135113281249996,0.016131576,0.01434898
5.496,0.016921922,0.019392338,0.056140211,0.016132213,0.014348041
5.5,0.016921922,0.019392371,0.056144535156249994,0.016133521,0.014347504882812499
5.504,0.016922359374999998,0.01939368,0.056142324,0.016134124023437498,0.014349248046874999
5.508,0.016921957,0.019394551,0.056135785,0.016133789,0.014349248046874999
5.512,0.016921285,0.019394383,0.056133906,0.016132649,0.014347437499999999
5.516,0.01692085,0.019393479,0.056138668,0.016132079,0.0143466
5.52,0.016921822,0.01939341,0.056143094,0.016132448,0.01434613
5.524,0.01692152,0.019393512,0.05614041,0.016133118164062498,0.014346901
5.528,0.016920549,0.01939398,0.056133371093749995,0.016133252929687498,0.014347103
5.532,0.016919342,0.019394518,0.056131227,0.016132884,0.014347504882812499
5.536,0.016918501953124998,0.019393578124999998,0.056136289,0.016134292,0.014348276
5.54,0.016918167968749998,0.019392305,0.056141382812499994,0.016135633,0.014350052734374999
5.544,0.016918838,0.019393242,0.056139941,0.016135868,0.014351092
5.548,0.016918973,0.01939341,0.056133773,0.016136304,0.014349617
5.552,0.01691733,0.019391467,0.056131996,0.016136304,0.014348242187499999
5.556,0.016915988,0.019391398,0.056136152343749995,0.016136404,0.014347773
5.56,0.01691552,0.019391398,0.056138938,0.016136035,0.014346834
5.564,0.016916324,0.019391398,0.056135281249999995,0.016134963,0.01434546
5.568,0.016916054687499998,0.019391467,0.05612784,0.016134561,0.014346029
5.572,0.016914277,0.019391098,0.056124957,0.016134258789062498,0.014347103
5.576,0.016913943,0.019389990234374998,0.056128777,0.016132917,0.014345996093749999
5.58,0.016914277,0.019389621,0.056131695,0.016132079,0.014344990234374999
5.584,0.016914547,0.019389488,0.056127203,0.016131073,0.014343582
5.588,0.016915015624999998,0.019388918,0.056119289062499994,0.016129497,0.014342644
5.592,0.016914478515624998,0.019388414062499998,0.056116035,0.016129497,0.014343046
5.596,0.016913172,0.019387477,0.056118719,0.016129564,0.014342744140624999
5.6,0.016912268,0.019386805,0.056122508,0.016129934,0.014341839
5.604,0.016912232,0.019386972656249998,0.056119289062499994,0.016129564,0.014340430664062499
5.608,0.016911932,0.019386604,0.056112684,0.016128425,0.014341235351562499
5.612,0.016911529,0.019386236,0.056111242,0.016127787,0.014341336
5.616,0.016910824,0.019385264,0.056115938,0.016126882,0.014340297
5.62,0.016910421874999998,0.01938523,0.056120964843749996,0.016126849,0.014339056
5.624,0.016910154,0.019385531,0.056118851562499995,0.016127318,0.014338989257812499
5.628,0.016909752,0.019385264,0.056113523,0.016127218,0.014340396484374998
5.632,0.01690868,0.01938315,0.056112984374999994,0.016126111328124998,0.014340732421874999
5.636,0.016908344,0.019381174,0.056118351562499995,0.016125742,0.014339794
5.64,0.016908344,0.019381508,0.056122374999999995,0.016125976562499998,0.014339324
5.644,0.016908410156249998,0.019382615234374997,0.056118988,0.01612534,0.014337514
5.648,0.016908779,0.019382547,0.056111914,0.016124133,0.014336842773437499
5.652,0.016909014,0.019380535,0.056109199218749996,0.016123161132812498,0.014337011
5.656,0.016908813,0.019379462890624997,0.056112785,0.016122691,0.014336742
5.66,0.016909082031249998,0.019379564453124998,0.056116406,0.016122289,0.014336709
5.664,0.016909686,0.019380369,0.056113625,0.016121517578124998,0.014336038085937499
5.668,0.016908848,0.019379932,0.056107621,0.016119808,0.014335066
5.672,0.016906801,0.019378423828124998,0.056105609,0.016119104,0.014334228
5.676,0.016905929687499998,0.019377217,0.056110004,0.016118836,0.014331479
5.68,0.016905326,0.019376244,0.056113523,0.016119171,0.01433168
5.684,0.01690499,0.019376211,0.056110238281249995,0.016119506,0.014332517578124999
5.688,0.016905662,0.019376076,0.056103027,0.016118366,0.014330774414062499
5.692,0.016904287,0.019375139,0.056100246,0.016117327,0.014330439
5.696,0.016902979,0.019374568,0.056104438,0.016117092,0.014329635
5.7,0.016901975,0.01937477,0.056108023437499994,0.016116890624999998,0.014329064
5.704,0.016900867187499998,0.019374902,0.056105175781249995,0.016117327,0.014330674
5.708,0.016900063,0.019373295,0.056098234,0.016115718,0.014330238
5.712,0.016899393,0.019371383,0.056095352,0.016113572,0.014327623
5.716,0.016899023,0.019370343749999998,0.056099777,0.016113807,0.014326785156249999
5.72,0.016898453,0.019370143,0.056103633,0.016114544,0.014328159
5.724,0.016897883,0.019370143,0.056101184,0.016114008,0.014327053
5.728,0.016897514,0.01936974,0.056095215,0.016112833984374998,0.014326685
5.732,0.016897012,0.019369236328124997,0.056094078124999995,0.016112499,0.014325611
5.736,0.016896609,0.019368432,0.056099172,0.016112968749999998,0.014325644531249999
5.74,0.016896475,0.019367795,0.056102426,0.016112833984374998,0.014326818
5.744,0.016896273437499998,0.019367996,0.056098667968749995,0.016112465820312498,0.014327723632812499
5.748,0.016895939453124998,0.019368701,0.056091796874999995,0.016111325195312498,0.014326282226562499
5.752,0.016896006,0.01936793,0.05609032,0.016108777,0.014323431640624999
5.756,0.016896006,0.019366722656249998,0.056095586,0.016108979,0.014324337
5.76,0.01689567,0.019366320312499997,0.056099711,0.016110219,0.014326952148437499
5.764,0.016894933593749998,0.019365749999999998,0.056098167968749994,0.016110822265624998,0.014327791015624999
5.768,0.016893927734374998,0.019365348,0.05609307,0.016110655,0.014328159
5.772,0.016893357421874998,0.019364845703124998,0.056091762,0.016109615,0.014326751
5.776,0.016892988,0.019363672,0.056096895,0.016109549,0.014325443359374999
5.78,0.016894162,0.019363873,0.056101418,0.016110152,0.014326785156249999
5.784,0.016894531,0.019363672,0.056097898437499995,0.016110487,0.014328227
5.788,0.016893525,0.019362833984374998,0.056091527343749996,0.016110957031249998,0.014329735
5.792,0.016892988,0.019362263671874998,0.056089652,0.016110219,0.014328293945312499
5.796,0.016893424,0.019361996,0.056094176,0.016109549,0.014325946289062499
5.8,0.016895,0.019362564453124998,0.056098469,0.016110118,0.014326214843749999
5.804,0.016895168,0.019363203,0.056095082,0.016111325195312498,0.014327489
5.808,0.016894027,0.019363839843749998,0.056088710937499994,0.016111392578124998,0.014326449218749999
5.812,0.016892418,0.019363102,0.056087641,0.016110186,0.014325779296874999
5.816,0.016891379,0.019362564453124998,0.056093137,0.016109582,0.014324270507812499
5.82,0.016891982,0.019362633,0.056097933593749996,0.016110118,0.014324739
5.824,0.016893088,0.019362699218749998,0.056095652,0.016109649,0.014323365
5.828,0.01689252,0.019362398437499997,0.056090457,0.016108374999999998,0.014320816406249999
5.832,0.016890742,0.019361324,0.056088879,0.016107101,0.014321354
5.836,0.016890238,0.019360387,0.056092801,0.016106732,0.014321085
5.84,0.016890172,0.019359381,0.056096089843749995,0.016107537,0.014321152
5.844,0.016890004,0.019359279,0.056092602,0.016107838867187498,0.014322594
5.848,0.016889333984374998,0.019359246093749997,0.056086668,0.016108442382812498,0.014322928710937499
5.852,0.016888898,0.019359582,0.056085996,0.016108442382812498,0.014321789
5.856,0.016888127,0.019359615,0.056090355,0.016107537,0.014319543
5.86,0.016887389,0.019360051,0.056093976562499995,0.016107738,0.014321018
5.864,0.016886652,0.019360285,0.056090386718749996,0.016108374999999998,0.014321923
5.868,0.016886785,0.019359883,0.056084086,0.016108945312499998,0.014321152
5.872,0.016886652,0.019358609,0.056083281,0.016108274,0.014320984
5.876,0.016885311,0.019358072265624998,0.056088344,0.016108141,0.014321755859374998
5.88,0.016885377,0.019359045,0.056092969,0.016109414,0.014323431640624999
5.884,0.01688625,0.019358642578124998,0.05608982,0.01610928,0.014320783
5.888,0.016885813,0.019357805,0.056083949,0.016108106,0.014319677
5.892,0.016885277343749998,0.019357133,0.056083414062499996,0.016106866210937498,0.014320079
5.896,0.016884572265624998,0.019356865,0.056088542968749995,0.016106262695312498,0.014319576
5.9,0.016884037,0.019357838,0.05609307,0.016105894,0.01431971
5.904,0.016883533,0.019359111328124998,0.056091262,0.016105256835937498,0.014318839
5.908,0.016883599609374998,0.01935948,0.056085828,0.016104854,0.014318906
5.912,0.016884136718749998,0.019358877,0.056084086,0.016103916,0.014318303
5.916,0.016884807,0.019357736,0.05608898,0.016103514,0.014317933593749999
5.92,0.016884605468749998,0.01935673,0.056093742,0.016104117,0.014318771
5.924,0.0168835,0.019356363,0.056091359,0.016105022,0.014319576
5.928,0.016883869,0.019356093749999997,0.056085258,0.016105659,0.014320582
5.932,0.016884338,0.019354652,0.056083785156249996,0.016104922,0.014317498
5.936,0.016884104,0.019353547,0.056087941406249994,0.016104285,0.014316257
5.94,0.016884539,0.019353445,0.056090152,0.016103782,0.014315385742187499
5.944,0.016883098,0.019354686,0.056086434,0.016103782,0.014314078124999999
5.948,0.016881488,0.019354919921874998,0.056080832,0.016103111,0.014313541015624999
5.952,0.016880683593749998,0.019354619140624998,0.056079726562499994,0.016103111,0.014313575195312499
5.956,0.016880584,0.019355457,0.056084754,0.016103581,0.014313105
5.96,0.016880182,0.019355859,0.056089215,0.016104084,0.014313239257812499
5.964,0.016880014,0.019356664,0.056087641,0.016104821289062498,0.014314581
5.968,0.016878939,0.019356898,0.056082844,0.016105022,0.014313978
5.972,0.016878102,0.019355357,0.056083145,0.01610462,0.01431267
5.976,0.01687733,0.019354352,0.056089718749999996,0.016104419,0.014312972
5.98,0.016876459,0.019355121,0.056094211,0.016104553,0.014312771
5.984,0.016875285,0.019355961,0.056091996,0.016105123,0.014313742187499999
5.988,0.016875318,0.019355559,0.056086464843749996,0.016105089,0.014315049804687499
5.992,0.016874883,0.019354183593749998,0.056085395,0.01610415,0.014315218
5.996,0.016874279,0.019352742,0.056090289,0.016104185,0.014314279
6,0.016874246,0.01935207,0.056093910156249996,0.01610452,0.014313943
6.004,0.016874246,0.019352171874999997,0.056091191,0.016104753906249998,0.014314546874999999
6.008,0.016873643,0.01935234,0.056086602,0.016105256835937498,0.014314748046874999
6.012,0.01687324,0.019351904,0.056087168,0.016105256835937498,0.014314514
6.016,0.016872871,0.01935177,0.056092199,0.01610462,0.014311429
6.02,0.016871462890624998,0.019353211,0.05609552,0.016104250976562498,0.014311328
6.024,0.016869352,0.019354082,0.056093640624999996,0.016105659,0.014313038085937499
6.028,0.016868043,0.019353646,0.056089785156249995,0.016106363,0.014314379882812499
6.032,0.016866835937499998,0.019352641,0.056089582031249995,0.016106095,0.014313809570312499
6.036,0.016866334,0.019352105,0.056095082,0.016106531,0.014312771
6.04,0.016865931640624998,0.019351803,0.056099543,0.016106967,0.014312334
6.044,0.016865127,0.019352406,0.056097297,0.016107034,0.014311999023437499
6.048,0.016864256,0.019351904,0.056092499999999997,0.016107369140624998,0.014310691
6.052,0.016862244,0.019350662,0.056092703,0.016106698,0.014309954
6.056,0.01686117,0.019350427734374998,0.056097328,0.016105961,0.014308914062499999
6.06,0.016860635,0.019350662,0.056100211,0.016106531,0.014309518
6.064,0.016860566,0.019352238,0.056098031,0.016107201,0.014310791992187499
6.068,0.016860332031249998,0.019353277,0.056093640624999996,0.016106464,0.014311094
6.072,0.01685983,0.019351904,0.056094344,0.016105123,0.014311060546874999
6.076,0.016859395,0.019350764,0.056100547,0.016105324218749998,0.014310322
6.08,0.016859326171874998,0.019350797,0.05610541,0.016106531,0.014312133
6.084,0.016860635,0.019350998046874998,0.056102960937499995,0.016106295898437498,0.014312300781249999
6.088,0.016862311,0.019350932,0.056096925781249994,0.01610452,0.014309115
6.092,0.016862343749999998,0.019350427734374998,0.056096589843749996,0.016103782,0.014307406
6.096,0.016862076,0.019350295,0.056102191406249995,0.016103245117187498,0.014306500976562499
6.1,0.016862746,0.019350764,0.05610618,0.016102709,0.014304656249999999
6.104,0.016863082,0.019350932,0.056103664062499996,0.016101871093749998,0.014305293945312499
6.108,0.016862512,0.019349556640624998,0.056098738,0.0161011,0.014306333
6.112,0.016861941,0.019348215,0.056098836,0.016100999,0.014306031
6.116,0.016861674,0.019348383,0.056104636718749996,0.016102005,0.014304857
