time,F8,F4,Fz,F3,F7
0,0.030010398,0.033269484,0.074749313,0.092124758,0.029342529
0.004,0.030010566406249998,0.033269785156249995,0.074748438,0.092123148,0.029341355
0.008,0.030008924,0.033270223,0.074750617,0.09212268,0.029341322265624997
0.012,0.030008789,0.03326982,0.074751258,0.092122281,0.029341355
0.016,0.030009728515624997,0.033268914,0.074749008,0.092120969,0.029340215
0.02,0.030010566406249998,0.033268813,0.074745922,0.092117984,0.029340650390624997
0.024,0.030010902,0.033268914,0.07474418,0.092114703,0.029338941
0.028,0.030008554687499998,0.033268914,0.074745148,0.092112688,0.029337197
0.032,0.030007447265624997,0.033269148,0.074747195,0.092110781,0.029337734374999997
0.036,0.030006945312499998,0.03326925,0.074747602,0.092109039,0.029336627
0.04,0.030006843749999998,0.033269148,0.074745719,0.092106422,0.029336861328124998
0.044,0.030007113281249997,0.03326898,0.074744414,0.0921035,0.029336359
0.048,0.030008419921874998,0.033269184,0.074746227,0.092100453,0.029333609
0.052,0.030007314,0.033269515624999996,0.074748172,0.092098305,0.029335085937499998
0.056,0.030004966796874998,0.03326868,0.074748508,0.092096125,0.029337867
0.06,0.03000557,0.033269551,0.074746797,0.092093914,0.029337299
0.064,0.030005705,0.03327059,0.074745219,0.092091703,0.029336458984374997
0.068,0.030006609,0.033270488281249996,0.074746391,0.092089828,0.029336527
0.072,0.030007281,0.033270355,0.074748438,0.092088383,0.029337029296874997
0.076,0.030006912,0.03326975,0.074747734,0.092087242,0.029335621
0.08,0.030007080078124998,0.033268914,0.074745148,0.092085469,0.029335587890624997
0.084,0.030007648,0.033268379,0.074743844,0.092083523,0.029334852
0.088,0.030008554687499998,0.033268074,0.074744281,0.092081008,0.029331766
0.092,0.030007011718749997,0.033266734374999996,0.074745523,0.092078492,0.029332503906249998
0.096,0.030006441406249997,0.033266063,0.074744953,0.092077352,0.029333644531249998
0.1,0.030007348,0.033265593749999996,0.074741797,0.09207507,0.029333978515624998
0.104,0.030007849609374998,0.033265227,0.074739953,0.092072961,0.029334248046874997
0.108,0.030007548828124998,0.033265863281249995,0.074742031,0.092071555,0.029335085937499998
0.112,0.030006912,0.033265796874999996,0.074743914,0.092070281,0.029335587890624997
0.116,0.030006576171874997,0.033265964843749996,0.074742641,0.092068703,0.029335017578124997
0.12,0.030007314,0.033266199,0.074739891,0.092066859,0.029334582031249997
0.124,0.030006945312499998,0.033265695312499996,0.074738516,0.092065516,0.029336124999999998
0.128,0.030006509765624998,0.03326516,0.074740227,0.092064578,0.029336627
0.132,0.030005837890624998,0.033264957,0.074742367,0.092063539,0.029337768
0.136,0.030006643,0.033265629,0.07474193,0.092062664,0.029339746093749997
0.14,0.030007515624999998,0.033265863281249995,0.074740695,0.092061156,0.029338773
0.144,0.030006843749999998,0.033265563,0.074741297,0.092059414,0.029337633
0.148,0.030007548828124998,0.033264891,0.07474257,0.092058039,0.029336425781249998
0.152,0.030008051,0.033264355,0.074742773,0.092056164,0.029334683593749997
0.156,0.030008186,0.033264891,0.07474207,0.092054219,0.029336359
0.16,0.030006945312499998,0.033264824218749996,0.074739383,0.092052508,0.029338371
0.164,0.030005503906249998,0.033264121,0.074737508,0.092050297,0.029338807
0.168,0.030005671874999997,0.033264285,0.074738578,0.092047414,0.029337768
0.172,0.030006174,0.033265395,0.074740289,0.092045336,0.029335621
0.176,0.030007246,0.033265727,0.074738781,0.092043656,0.029333912
0.18,0.030007011718749997,0.033265059,0.07473593,0.092040805,0.029334515624999998
0.184,0.030007281,0.033265563,0.074735766,0.092038195,0.029335689453124997
0.188,0.030007348,0.033265863281249995,0.074736438,0.092036414,0.029334683593749997
0.192,0.030006677734374997,0.03326509,0.074737008,0.092034336,0.029333846
0.196,0.030006342,0.033264285,0.074735594,0.092031719,0.029334248046874997
0.2,0.030006542968749998,0.033264051,0.074733414,0.092029406,0.029334582031249997
0.204,0.030005234,0.033264254,0.074732648,0.092027797,0.029335587890624997
0.208,0.030005303,0.033264422,0.07473382,0.092026219,0.029335891
0.212,0.03000527,0.033264219,0.074735328,0.092024477,0.029334783
0.216,0.030005637,0.033264086,0.074734625,0.092023906,0.029334582031249997
0.22,0.030007045,0.033264051,0.074732109,0.092022164,0.029334582031249997
0.224,0.030006777,0.033263348,0.074730336,0.092019922,0.029334852
0.228,0.030004631,0.033262746,0.074731641,0.092018273,0.029333912
0.232,0.030003895,0.033263047,0.074733586,0.092017172,0.029335387
0.236,0.030004933593749998,0.033263516,0.074733086,0.092015359,0.029332906
0.24,0.030003927734374998,0.033263648,0.07473043,0.092012781,0.029331564
0.244,0.030005303,0.033263516,0.074729797,0.092011,0.029333074218749998
0.248,0.030006477,0.033262879,0.074730633,0.092009023,0.029332101562499997
0.252,0.030006309,0.033261605,0.074731844,0.092006844,0.029331230468749997
0.256,0.030006174,0.033260766,0.07473107,0.092005367,0.029333777
0.26,0.030005435546874997,0.033260867,0.074728492,0.092003492,0.029334984374999998
0.264,0.030004631,0.033261503906249996,0.074728023,0.092001984,0.029334615
0.268,0.030005503906249998,0.033261066,0.074729063,0.092000742,0.029333644531249998
0.272,0.030005637,0.033260598,0.074729563,0.091999062,0.029333174
0.276,0.030004429687499997,0.033260261718749996,0.074728789,0.091997523,0.029333846
0.28,0.030003123,0.033259793,0.074726648,0.091995344,0.029330828
0.284,0.030002519531249997,0.03325993,0.074726109,0.091992898,0.029329318
0.288,0.030000775390624998,0.033259859,0.074728156,0.091991422,0.029330960937499997
0.292,0.030000139,0.033259426,0.074730367,0.091990148,0.029331666015624997
0.296,0.030000207,0.033259156,0.074729898,0.091989141,0.029332438
0.3,0.030000005859374998,0.03325909,0.074727781,0.091987734,0.029333242187499997
0.304,0.029998965,0.033259761718749996,0.074727016,0.091986727,0.029331966796874998
0.308,0.029997457031249997,0.033260164,0.07472775,0.091985891,0.029332135
0.312,0.029997355468749997,0.033259793,0.074728086,0.091985047,0.029333074218749998
0.316,0.029997959,0.033259492187499996,0.074727219,0.091984242,0.02933284
0.32,0.029999166,0.033259594,0.074725102,0.091983141,0.029331732
0.324,0.029999166,0.033259793,0.07472393,0.09198257,0.029331966796874998
0.328,0.029998865234374998,0.033259727,0.074725742,0.091981563,0.029332236328124997
0.332,0.029997121,0.033259660156249995,0.07472718,0.091980625,0.029332402343749998
0.336,0.029997088,0.033260027,0.074726109,0.091979953,0.029332236328124997
0.34,0.029997925781249997,0.033259996,0.074723797,0.091979047,0.029331396484374998
0.344,0.029998061,0.033260027,0.074723125,0.091977609,0.029331264
0.348,0.029997994140624998,0.033260566,0.074723758,0.091976266,0.029329754
0.352,0.029998597656249997,0.033261503906249996,0.074725805,0.091974594,0.029329654296874997
0.356,0.029999703,0.033262309,0.074725703,0.09197318,0.029328378906249997
0.36,0.029999166,0.033262945,0.074723594,0.091971375,0.029327676
0.364,0.02999967,0.033263551,0.07472225,0.091969594,0.029327474609374998
0.368,0.029998931640624997,0.033263516,0.074723625,0.09196825,0.029327811
0.372,0.029999637,0.033263617,0.074725039,0.091967547,0.029326603515624997
0.376,0.029999637,0.033263414062499996,0.074724867,0.091967117,0.029328078124999997
0.38,0.029999637,0.033263551,0.074723094,0.091965977,0.029331564
0.384,0.030001246,0.03326318,0.074721109,0.091964266,0.029332135
0.388,0.030000541,0.033262309,0.074721516,0.091962484,0.029332671874999997
0.392,0.030000373046874997,0.033261871,0.074721883,0.091961109,0.029329553
0.396,0.030000373046874997,0.033261773437499996,0.074720813,0.091959906,0.029328883
0.4,0.030001513671874997,0.033262176,0.074719305,0.091958398,0.029329955078124997
0.404,0.030002486328124998,0.033262609,0.074718563,0.091957227,0.029329988
0.408,0.029999468749999997,0.033262141,0.074720344,0.09195675,0.029328748
0.412,0.030000373046874997,0.033262039,0.074722352,0.091956484,0.029328111
0.416,0.030001145,0.033262309,0.074721313,0.091955711,0.029329351562499998
0.42,0.029999637,0.033262375,0.074719469,0.091953867,0.029331162
0.424,0.030000105,0.033262074,0.074719336,0.091953,0.029332068359374998
0.428,0.029999501953124997,0.033261941406249995,0.074720609,0.091952258,0.02933133
0.432,0.029998799,0.033261871,0.074720813,0.091951023,0.029330089843749997
0.436,0.029999703,0.033261035,0.074719602,0.091949242,0.029328313
0.44,0.030000307,0.03325993,0.074717125,0.09194643,0.029327574
0.444,0.029999367187499997,0.033259293,0.07471682,0.091944547,0.029328982
0.448,0.029999535,0.033259156,0.074717758,0.091942805,0.029329822
0.452,0.029999703,0.033258249999999996,0.074717859,0.091941164,0.029329654296874997
0.456,0.029999937499999997,0.033258086,0.074716219,0.091939719,0.029328414
0.46,0.029999234,0.033258519531249996,0.074714305,0.091937875,0.029330189
0.464,0.029998094,0.033259359,0.074714203,0.09193657,0.029332705
0.468,0.029998262,0.033259527,0.07471625,0.091935695,0.029331465
0.472,0.029999301,0.033259859,0.074717695,0.091934523,0.029331264
0.476,0.029999201,0.033259859,0.074717156,0.091932813,0.02933227
0.48,0.030001044921874997,0.033259660156249995,0.074714305,0.091930367,0.029331867
0.484,0.030000072,0.033259191,0.074714172,0.091927719,0.029333275
0.488,0.029999603515624997,0.033259258,0.074716523,0.091925977,0.029333879
0.492,0.029998094,0.033260098,0.074719641,0.091924969,0.029333576171874997
0.496,0.029996652,0.033259996,0.074719938,0.091923227,0.029332771
0.5,0.029996853515624998,0.033258922,0.074717492,0.091921383,0.029333174
0.504,0.029996853515624998,0.033257984,0.074716383,0.091920172,0.029333576171874997
0.508,0.029997423828124998,0.033257516,0.074718563,0.091919437,0.029335855468749998
0.512,0.029999033203124997,0.033257749999999996,0.074721445,0.09191907,0.029335621
0.516,0.029999805,0.033257816,0.074720875,0.091917695,0.029332604
0.52,0.030000005859374998,0.033257749999999996,0.074717961,0.091915781,0.029331867
0.524,0.029999805,0.033257883,0.074715383,0.091913703,0.029332604
0.528,0.029999468749999997,0.033258488,0.074715812,0.091911359,0.029332503906249998
0.532,0.030000676,0.033259594,0.074717258,0.091909312,0.029330426
0.536,0.030000977,0.033259761718749996,0.074716086,0.091906664,0.029327742
0.54,0.030001412,0.033259426,0.07471293,0.091903414,0.029326769531249998
0.544,0.030001447265624998,0.033258219,0.074711125,0.091901133,0.02932885
0.548,0.030000307,0.033256777,0.074712664,0.091899555,0.029330592
0.552,0.029998799,0.033256207,0.074713938,0.09189882,0.029329688
0.556,0.029997625,0.033256141,0.074712297,0.091897977,0.029328748
0.56,0.029997826,0.033255938,0.074709844,0.091895836,0.029329721
0.564,0.029999333984374998,0.033255504,0.074709414,0.091893555,0.02932915
0.568,0.030000609374999997,0.033255906,0.074711391,0.091891641,0.029327844
0.572,0.030000005859374998,0.033256406249999995,0.074713602,0.0918905,0.029330156
0.576,0.030000172,0.033257582031249996,0.074713938,0.091889898,0.029332369140624998
0.58,0.030000943359374997,0.033257348,0.074712695,0.091888258,0.029333242187499997
0.584,0.030001480468749998,0.033256141,0.074711359,0.091885672,0.029331999999999997
0.588,0.030000775390624998,0.033255234,0.074711891,0.091883828,0.029332402343749998
0.592,0.029999971,0.033254832,0.074713305,0.091882055,0.029331564
0.596,0.030000441406249998,0.033254262,0.074711727,0.091880609,0.029329285
0.6,0.030000307,0.033253324,0.074708406,0.091878734,0.029328547
0.604,0.030000172,0.033253660156249996,0.074706664,0.091877125,0.029329754
0.608,0.029999435546874998,0.033254465,0.074708234,0.091875781,0.029332236328124997
0.612,0.029999301,0.033254633,0.074710719,0.091874445,0.029331162
0.616,0.029998294921874998,0.03325473,0.074710719,0.091873367,0.029332068359374998
0.62,0.029998229,0.033254563,0.074708508,0.091872531,0.029332939453124998
0.624,0.029998697,0.03325473,0.074706867,0.091871391,0.029332503906249998
0.628,0.029998195,0.033254898,0.074708844,0.091870055,0.029330927734374998
0.632,0.029998396,0.033255434,0.074711023,0.091869148,0.029330626953124998
0.636,0.029998094,0.033255636718749995,0.074709883,0.091867969,0.029331799
0.64,0.029995344,0.033255468749999996,0.074707633,0.0918675,0.029332101562499997
0.644,0.029994439453124997,0.033255066,0.074705922,0.091865961,0.029332369140624998
0.648,0.029994775,0.033254563,0.074707195,0.091864422,0.029334281
0.652,0.029995178,0.03325473,0.074709547,0.091863547,0.029335521484374998
0.656,0.029995244,0.033255336,0.07470968,0.091862273,0.029335957
0.66,0.029996283203124998,0.033256105,0.074707336,0.091860727,0.029333141
0.664,0.029997154,0.033257613,0.074706094,0.091859891,0.029330189
0.668,0.029996082,0.033257246,0.074706023,0.091858922,0.029330727
0.672,0.029994607,0.033256543,0.0747075,0.091858383,0.029332638671874998
0.676,0.029993970703124997,0.033256207,0.074707102,0.091858219,0.029332805
0.68,0.029993602,0.033255336,0.074704352,0.091857445,0.029331297
0.684,0.029993367187499998,0.033254262,0.074702336,0.09185607,0.029330660156249997
0.688,0.029992092,0.033254094,0.074703273,0.091855266,0.029329486328124998
0.692,0.029991119140624998,0.033253895,0.074704922,0.09185443,0.029330056640624998
0.696,0.029990214843749998,0.033253895,0.074703609,0.091853484,0.029328111
0.7,0.029990986,0.033253895,0.074700664,0.091852281,0.029325865234374998
0.704,0.029992527,0.033254129,0.074699453,0.091851039,0.029326234
0.708,0.029992059,0.033254465,0.074700461,0.091850875,0.029327139
0.712,0.029990852,0.033253558593749996,0.074700727,0.091850469,0.029326637
0.716,0.029990584,0.033252988,0.074699117,0.091850336,0.029326468749999998
0.72,0.029991154,0.033253223,0.074695867,0.091849367,0.029325396
0.724,0.029990551,0.033252887,0.074693758,0.091848023,0.029322310546874997
0.728,0.029990382812499997,0.033252219,0.07469543,0.091847484,0.029321205
0.732,0.029990214843749998,0.033252953,0.074697578,0.091847016,0.029320869140624997
0.736,0.029991053,0.033253258,0.074696977,0.091845641,0.029321707031249998
0.74,0.029991791015624998,0.033252754,0.074695398,0.091843836,0.029322244
0.744,0.029992494,0.033252285,0.074694125,0.091841555,0.029321874999999997
0.748,0.029991220703124998,0.033251379,0.074694328,0.091840211,0.029321574
0.752,0.029989477,0.033251613,0.074696406,0.091839141,0.02932077
0.756,0.029987867,0.03325198,0.074695797,0.09183743,0.029320535156249997
0.76,0.029986695,0.033251012,0.074693422,0.091834781,0.029319931640624998
0.764,0.029986695,0.033249969,0.074692242,0.091832602,0.029319025
0.768,0.029987029,0.033249636718749996,0.074693719,0.091831328,0.029319025
0.772,0.029985521,0.033249969,0.074696133,0.091830625,0.029321439453124997
0.776,0.029987029,0.033250473,0.074696031,0.091829547,0.029321271484374998
0.78,0.029985621093749998,0.033250172,0.074693852,0.091827805,0.029316343749999998
0.784,0.02998485,0.03325034,0.074691742,0.091825797,0.029313527
0.788,0.029984447,0.033250441,0.074693891,0.091824484,0.02931584
0.792,0.029984783203124997,0.033251078,0.074696305,0.091824289,0.029317919921874998
0.796,0.029984447,0.033251313,0.074695836,0.091823883,0.029318689453124998
0.8,0.02998351,0.033250844,0.074693086,0.091822812,0.029319259765624998
0.804,0.029981967,0.033250773,0.074691742,0.091821734,0.029318422
0.808,0.029981867187499997,0.033250473,0.074693281,0.091821,0.029318287109374997
0.812,0.029983375,0.033250207,0.074694625,0.091819859,0.029318758
0.816,0.029984179687499998,0.033250207,0.074693719,0.091818383,0.029317182
0.82,0.029983710937499998,0.033250105,0.074691539,0.091816773,0.02931574
0.824,0.029983777,0.033250875,0.074690398,0.091815234,0.029315572
0.828,0.029983744140624997,0.033251578,0.074692477,0.091814063,0.02931698
0.832,0.029983477,0.03325168,0.074693789,0.091812789,0.029315908203124998
0.836,0.029983275390624998,0.033251546874999996,0.074692648,0.091811375,0.029314632812499998
0.84,0.029982771,0.033250707,0.074690469,0.091808961,0.029316242187499997
0.844,0.029982603515624998,0.033250207,0.074689594,0.09180675,0.029317852
0.848,0.029982838,0.033249938,0.074691242,0.091804836,0.029317416
0.852,0.029983039062499998,0.033249804687499995,0.074692781,0.091803398,0.029316176
0.856,0.029982939,0.03324893,0.074692078,0.091801586,0.029316746
0.86,0.029983408,0.033248695,0.074689125,0.091798969,0.029317818359374997
0.864,0.029985050781249998,0.033249402,0.07468832,0.091796992,0.029317584
0.868,0.029982838,0.033248762,0.074690063,0.091795891,0.029317014
0.872,0.029981128906249998,0.03324873,0.074691742,0.091794445,0.029317986
0.876,0.029981597656249998,0.033248292968749996,0.074691109,0.091793141,0.029318958984374997
0.88,0.029982201,0.033248629,0.074688789,0.091791531,0.029319193
0.884,0.029982672,0.033249098,0.074687648,0.091790422,0.029320367187499998
0.888,0.029982738281249997,0.033249199,0.074689867,0.091789453,0.02932268
0.892,0.029982436,0.033248797,0.074692078,0.091788711,0.029323417968749998
0.896,0.029981465,0.033248496093749996,0.074692078,0.09178757,0.029321607
0.9,0.029981063,0.03324893,0.074689594,0.091786164,0.029320367187499998
0.904,0.02998066,0.033249098,0.074687586,0.091784523,0.029319461
0.908,0.029979352,0.033248629,0.074688727,0.091782945,0.02931859
0.912,0.02997791,0.033248359,0.07468993,0.091780969,0.029317919921874998
0.916,0.029977475,0.03324843,0.074688625,0.091779422,0.029317115
0.92,0.02997734,0.03324843,0.074686445,0.09177768,0.029316109
0.924,0.029976970703124998,0.03324843,0.074685203,0.091775539,0.029316477
0.928,0.02997677,0.033248094,0.074687047,0.091774328,0.029317752
0.932,0.029976703,0.033248027,0.074688891,0.091773258,0.029317416
0.936,0.029977943,0.03324816,0.074687789,0.091771477,0.029317416
0.94,0.029978982421874998,0.033248027,0.074684805,0.091769102,0.029315671874999998
0.944,0.02997677,0.033247758,0.074684367,0.091766883,0.029316343749999998
0.948,0.029978012,0.033247824,0.074685641,0.09176518,0.02931584
0.952,0.029979218749999998,0.033247253906249996,0.074686141,0.091764172,0.029314935546874997
0.956,0.02997942,0.033246852,0.074685141,0.091762492,0.029313794921874997
0.96,0.029978246093749997,0.033246988,0.074684063,0.091761352,0.029314365234374997
0.964,0.029978078124999998,0.033247824,0.074683531,0.091760148,0.029316879
0.968,0.029978714843749997,0.033248027,0.074684766,0.091759078,0.029318656
0.972,0.029979218749999998,0.033247188,0.074686242,0.091757469,0.029317785156249998
0.976,0.029979184,0.033246585937499996,0.074685172,0.091756055,0.029316242187499997
0.98,0.02997848,0.033246082,0.07468232,0.091753578,0.029316208984374998
0.984,0.029979654296874998,0.033246516,0.074680914,0.091751461,0.029315975
0.988,0.029980591796874997,0.033246585937499996,0.074682625,0.091750859,0.029315671874999998
0.992,0.029980961,0.033247421874999995,0.074684063,0.091749453,0.02931517
0.996,0.02997885,0.033247086,0.074683563,0.091747672,0.029316846
1,0.029978648437499998,0.033246316,0.074681688,0.091745828,0.029318925781249998
1.004,0.029979822265624997,0.033246348,0.074680375,0.091744219,0.029316477
1.008,0.029978447,0.033246785,0.074681586,0.091743383,0.029316644531249998
1.012,0.029978144531249997,0.033247152343749996,0.074682758,0.091742344,0.029315671874999998
1.016,0.029977105468749998,0.033247656,0.074681688,0.091740703,0.02931641
1.02,0.029976804687499997,0.033248762,0.074679875,0.091738625,0.029317148
1.024,0.029977976562499998,0.033249804687499995,0.074679273,0.091736711,0.029316311
1.028,0.029977708984374997,0.033249668,0.074680945,0.091735336,0.029317683593749998
1.032,0.029976669921874997,0.033249066,0.074682688,0.091733492,0.029317683593749998
1.036,0.029976904,0.033249703,0.074682688,0.091731617,0.029318322
1.04,0.029976268,0.033249133,0.074680039,0.091729672,0.02931859
1.044,0.029975832,0.033248124999999996,0.074678805,0.091727828,0.029319361328124998
1.048,0.02997543,0.033247152343749996,0.074680445,0.09172682,0.029318656
1.052,0.029974859,0.033246652343749995,0.074682188,0.09172575,0.029318523437499997
1.056,0.029976568359374997,0.033247355468749996,0.074680313,0.091724344,0.029316644531249998
1.06,0.029977138671874997,0.033247355468749996,0.074677055,0.09172243,0.029317382812499997
1.064,0.029977307,0.033247188,0.074675516,0.091720516,0.029317449
1.068,0.029976334,0.033246953,0.074677094,0.091719609,0.029315506
1.072,0.029975832,0.033246953,0.074678031,0.091718844,0.029315671874999998
1.076,0.029976436,0.033247289,0.074677695,0.091718039,0.029317416
1.08,0.029976535156249998,0.03324702,0.074676086,0.091716328,0.029318824218749998
1.084,0.029976301,0.033246617,0.07467582,0.091714984,0.029318958984374997
1.088,0.02997573,0.033247121,0.074678094,0.091714078,0.029317986
1.092,0.029976501953124998,0.033247624999999996,0.074680008,0.091712703,0.029317919921874998
1.096,0.029975832,0.033247488,0.074679305,0.091710227,0.029318322
1.1,0.029975964843749998,0.033247691,0.07467568,0.091706875,0.029316074
1.104,0.029975898,0.033247523437499996,0.074673836,0.091704086,0.029314969
1.108,0.029974958984374998,0.033247188,0.07467468,0.091702414,0.029314533
1.112,0.029976234374999997,0.033246785,0.074676687,0.091701172,0.02931584
1.116,0.029974958984374998,0.033245914,0.07467632,0.091699797,0.029316644531249998
1.12,0.029972947265624997,0.033244773,0.074674945,0.091697383,0.029316343749999998
1.124,0.029973283,0.033244269531249995,0.074674242,0.091694703,0.029316242187499997
1.128,0.029975598,0.033243969,0.074674945,0.091692289,0.029316812499999997
1.132,0.029976736,0.033244101562499996,0.074676758,0.091690344,0.029318355468749998
1.136,0.029976,0.03324377,0.074676187,0.091688766,0.029317517578124997
1.14,0.029976703,0.03324266,0.074673336,0.091685648,0.029313996
1.144,0.029976334,0.033241254,0.074671359,0.09168307,0.029314432
1.148,0.029976066406249998,0.033241320312499996,0.074671828,0.091681055,0.029312890624999997
1.152,0.029975328,0.033241824,0.074673641,0.091679109,0.029311716796874998
1.156,0.029974592,0.033242426,0.074673336,0.091677266,0.029312789062499997
1.16,0.029973484374999998,0.033242492,0.074670992,0.091675156,0.029315438
1.164,0.029973316,0.033242426,0.074669648,0.091673414,0.029316008
1.168,0.029975328,0.033243230468749996,0.074671258,0.091672172,0.029316677734374998
1.172,0.029974958984374998,0.033243601562499996,0.074673305,0.091671102,0.029318758
1.176,0.029974154,0.033244574218749996,0.074672938,0.091669961,0.029316242187499997
1.18,0.029972814,0.033244504,0.074671328,0.091668148,0.029315707
1.184,0.029973484374999998,0.033244035,0.074670219,0.091666773,0.029315471
1.188,0.029973719,0.033243902,0.074672094,0.091666875,0.029316074
1.192,0.029973484374999998,0.033244640624999995,0.074674508,0.091666273,0.029316947265624997
1.196,0.029973953124999998,0.033245379,0.074673641,0.091664094,0.029315806640624997
1.2,0.029974154,0.033245343749999996,0.074670789,0.091661273,0.029313996
1.204,0.029974189453124998,0.033245074,0.074668977,0.091659602,0.029315707
1.208,0.029974725,0.033244809,0.074669813,0.091658258,0.029316311
1.212,0.029974222656249997,0.033244640624999995,0.074670852,0.091656812,0.029317785156249998
1.216,0.029974592,0.033244640624999995,0.074670383,0.091655039,0.029318656
1.22,0.029975463,0.033244406,0.074668477,0.091653359,0.029317818359374997
1.224,0.029973652343749997,0.033244035,0.074668141,0.091651281,0.029317281249999997
1.228,0.029972277,0.033244738,0.074670086,0.091649508,0.029316477
1.232,0.029972881,0.033245343749999996,0.074671563,0.0916485,0.02931574
1.236,0.029972445,0.033245309,0.074670281,0.091647023,0.029315304687499998
1.24,0.029970367,0.03324484,0.074667773,0.091645687,0.029316143
1.244,0.02997077,0.033244172,0.074665695,0.091643539,0.029315002
1.248,0.029970166015624997,0.033243199,0.074666594,0.091641898,0.02931574
1.252,0.029969629,0.033243433593749996,0.074667836,0.091640188,0.029316176
1.256,0.029971875,0.033244172,0.074667164,0.091638508,0.029314398
1.26,0.029974457,0.033244941,0.074665188,0.091636797,0.029312689
1.264,0.029973719,0.033245309,0.074664484,0.091635461,0.02931393
1.268,0.029971271,0.033245309,0.07466593,0.091633852,0.029313761718749998
1.272,0.02997077,0.033244406,0.074667266,0.091631398,0.0293145
1.276,0.029970332031249998,0.033243699,0.074666898,0.09162932,0.029315104
1.28,0.029971037109374998,0.033243164,0.074663883,0.091627578,0.029314834
1.284,0.029970098,0.033241855,0.074661836,0.091625398,0.0293145
1.288,0.029969293,0.033241421874999996,0.074663445,0.091623789,0.029313963
1.292,0.029968992187499998,0.033241086,0.074665086,0.091623016,0.029314935546874997
1.296,0.029969126953124998,0.033241488281249995,0.074664719,0.091621844,0.029314734
1.3,0.029969929687499997,0.033241992,0.074662609,0.091619867,0.029314164
1.304,0.029969193,0.033241050781249996,0.074661602,0.091618695,0.029315471
1.308,0.029968188,0.033239813,0.074663578,0.091616914,0.029314935546874997
1.312,0.029968221,0.033239477,0.074664852,0.091615844,0.029315638671874998
1.316,0.029969527,0.033240078124999996,0.07466368,0.091614977,0.029316041
1.32,0.02996983,0.033240078124999996,0.074660195,0.091613969,0.029315104
1.324,0.02996983,0.033239777,0.074658414,0.091612422,0.029314466796874997
1.328,0.029970266,0.033240246,0.074659352,0.091611047,0.029313224609374997
1.332,0.029971205,0.033241320312499996,0.074660328,0.091610281,0.029313158
1.336,0.029970266,0.033241453,0.074660664,0.091609039,0.029313761718749998
1.34,0.029969729,0.033241285,0.074659055,0.091607898,0.029314834
1.344,0.029970031249999998,0.033242059,0.074657914,0.091606523,0.0293146
1.348,0.029971171874999997,0.033242191406249996,0.074658922,0.09160418,0.029312924
1.352,0.029971809,0.033241656,0.074659586,0.091602102,0.029310308593749997
1.356,0.029972042968749998,0.033241824,0.074658883,0.091601094,0.029308465
1.36,0.029971373,0.033241656,0.074655367,0.09159925,0.029305078124999998
1.364,0.029971439,0.033241789,0.074652281,0.091596898,0.029302396
1.368,0.029971205,0.033242257812499995,0.074652984,0.091594219,0.029298977
1.372,0.029970734,0.033241957,0.074652953,0.091592273,0.029295053
1.376,0.029968791,0.03324075,0.074651273,0.091590836,0.029293544921874998
1.38,0.029969427734374998,0.033239242,0.074647281,0.091588719,0.029288917968749998
1.384,0.029971171874999997,0.033238035,0.074643594,0.091586273,0.029284927734374997
1.388,0.029970031249999998,0.033236895,0.074643797,0.091583555,0.02928248
1.392,0.029968589843749997,0.033235891,0.074644602,0.091581281,0.029279396484374998
1.396,0.029968322,0.033235957,0.074644398,0.09157957,0.029277988
1.4,0.029968221,0.033235418,0.07464182,0.091577586,0.029277619
1.404,0.029968758,0.033234684,0.074639141,0.091574844,0.029276277343749997
1.408,0.029970434,0.03323418,0.074638805,0.091571891,0.029272557
1.412,0.029971037109374998,0.033233508,0.074640547,0.091568906,0.02927192
1.416,0.029972143,0.033234281,0.074640445,0.091565953,0.02927373
1.42,0.029973988,0.033234883,0.074638438,0.091563375,0.029273563
1.424,0.029972545,0.033233844,0.074637461,0.091560695,0.029273127
1.428,0.029971640624999997,0.033232906,0.074637531,0.091557945,0.029271751953124998
1.432,0.029973216796874997,0.033234211,0.074640375,0.091555227,0.029272322265624998
1.436,0.029975496093749998,0.033235789,0.074641789,0.091552742,0.029274031
1.44,0.029977006,0.033236125,0.074639539,0.091549727,0.029277184
1.444,0.029976166,0.033235891,0.074638195,0.091547281,0.029279328
1.448,0.029975228515624997,0.033235386718749996,0.074639641,0.0915455,0.029280871093749997
1.452,0.029974424,0.033234684,0.074641617,0.091543156,0.029282447265624997
1.456,0.029973854,0.033233543,0.074641281,0.091540539,0.029282078
1.46,0.029973953124999998,0.033233406,0.074640109,0.091537828,0.029283017578124997
1.464,0.029974859,0.033234012,0.074640047,0.091535375,0.029282682
1.468,0.029974826,0.03323448,0.074642492,0.091533602,0.029282514
1.472,0.029975463,0.033235117187499996,0.074645375,0.09153293,0.029283183593749998
1.476,0.029976066406249998,0.033235789,0.074644836,0.091532063,0.029282045
1.48,0.029976301,0.033236828,0.074642422,0.091529844,0.029280972656249998
1.484,0.029977006,0.033237902,0.074641383,0.091526828,0.029281207
1.488,0.029977408,0.033237531,0.074642422,0.091524383,0.029281306640624997
1.492,0.029976703,0.033236559,0.074644234,0.091522102,0.029281943
1.496,0.029976033,0.033235891,0.074643867,0.091519617,0.029285564
1.5,0.029975195312499998,0.033235789,0.074641617,0.091517742,0.029288347656249998
1.504,0.029977105468749998,0.033235789,0.074640578,0.091516398,0.029284792968749997
1.508,0.029977844,0.033235855,0.074641852,0.091515023,0.029283419921874998
1.512,0.029977039,0.033235957,0.074644305,0.091513719,0.029284492187499997
1.516,0.029976938,0.033235891,0.074643125,0.091512078,0.029282447265624997
1.52,0.029976469,0.033236023,0.074639641,0.091510633,0.029279966796874998
1.524,0.029975664062499997,0.03323693,0.074638297,0.091508625,0.029280234
1.528,0.029975093749999997,0.033236527343749996,0.074640648,0.091506508,0.029280201
1.532,0.029975529296874998,0.033236859,0.074644133,0.091504836,0.029277217
1.536,0.029976166,0.033237398437499996,0.074645641,0.09150343,0.029276345703124998
1.54,0.029975964843749998,0.033236961,0.074643195,0.091502586,0.029280469
1.544,0.029973953124999998,0.033235117187499996,0.074640109,0.09150175,0.029283621
1.548,0.029971472656249998,0.033235015624999996,0.074641891,0.091501383,0.029283553
1.552,0.02997077,0.033235621,0.074645141,0.091501078,0.029285363281249997
1.556,0.02996708,0.033234715,0.074645539,0.091500477,0.029290125
1.56,0.029965404296874998,0.033234113,0.074643164,0.091499742,0.029291701
1.564,0.029964701,0.033234547,0.074641688,0.091499906,0.029290494140624998
1.568,0.029963057,0.033234246093749996,0.074643266,0.091500406,0.029290158
1.572,0.029962488281249998,0.033233105468749996,0.074643898,0.091501211,0.029289052734374998
1.576,0.029962018,0.03323173,0.074641617,0.091502156,0.029289488281249998
1.58,0.029960374999999997,0.033230188,0.074637797,0.09150282,0.029289419921874997
1.584,0.029959102,0.033229351562499995,0.074635281,0.091503492,0.029287678
1.588,0.029959470703124998,0.033229719,0.074635781,0.091503859,0.029287207031249998
1.592,0.029959303,0.033229855,0.074637258,0.091504531,0.029287945312499997
1.596,0.029958633,0.033230121093749995,0.074637195,0.091505539,0.029286906249999998
1.6,0.029958765624999998,0.033230758,0.074635117,0.091506141,0.029284894531249998
1.604,0.029958464843749998,0.033231027,0.07463307,0.091506445,0.029284727
1.608,0.029957357421874997,0.033230992187499996,0.074633875,0.091506711,0.029284425781249998
1.612,0.029955011718749997,0.033230793,0.074635883,0.091507781,0.029285765624999998
1.616,0.029956117,0.033231195312499996,0.074635586,0.091508789,0.029285666
1.62,0.029956351562499997,0.033231867,0.07463357,0.091509797,0.029285900390624998
1.624,0.029955312499999998,0.033233172,0.074632195,0.09151057,0.029283688
1.628,0.029955682,0.033233879,0.074633742,0.091511875,0.029283955
1.632,0.029954943,0.033234042968749995,0.074636391,0.091513789,0.029286068359374997
1.636,0.029954508,0.033234781,0.074637461,0.091516102,0.029287744
1.64,0.029956017578124997,0.033236054687499995,0.074635547,0.091517945,0.029289455
1.644,0.029957894531249998,0.033236594,0.074632398,0.091519383,0.029287408
1.648,0.029958431640624998,0.033235621,0.074631492,0.091520125,0.029283252
1.652,0.029958598,0.033234042968749995,0.074630055,0.091520797,0.029276881
1.656,0.029958029296874997,0.033233676,0.07462968,0.091521695,0.029273596
1.66,0.029958967,0.033233809,0.074627367,0.091522602,0.029272154
1.664,0.029960408,0.033233742,0.074622945,0.091522602,0.029268701171874998
1.668,0.029960074218749997,0.033233844,0.07462093,0.091521695,0.029263134765624997
1.672,0.029959738,0.033233543,0.074620023,0.091520125,0.029257636718749997
1.676,0.029961515624999997,0.033232672,0.074616438,0.09151818,0.029252373
1.68,0.029962957031249998,0.033231027,0.074611648,0.091516133,0.029247914062499998
1.684,0.029962588,0.033229418,0.074608328,0.091514086,0.029243086
1.688,0.029962923828124998,0.033228648,0.074606781,0.091511945,0.029235207
1.692,0.029962555,0.033227742,0.074605844,0.091510133,0.029231183593749998
1.696,0.029961582,0.033226836,0.074603664,0.091507047,0.029228334
1.7,0.029959738,0.033226,0.074598805,0.091503156,0.029223639
1.704,0.029959637,0.033224793,0.074596055,0.091499906,0.029220419921874997
1.708,0.029959804687499998,0.033223785,0.074595617,0.091497391,0.029217068359374997
1.712,0.029959637,0.033223484,0.07459532,0.091495617,0.029212339843749997
1.716,0.029959369140624997,0.033223215,0.074592969,0.091493773,0.029208417968749997
1.72,0.029958732,0.033223215,0.074589648,0.091490891,0.029205265624999997
1.724,0.029959470703124998,0.033223215,0.074587742,0.091486594,0.029202383
1.728,0.02995957,0.033222711,0.074587203,0.091482641,0.029200975
1.732,0.029960039,0.033223016,0.07458975,0.091478719,0.029201277
1.736,0.029960543,0.033222277343749995,0.07458818,0.091474328,0.0291995
1.74,0.029961012,0.033221203,0.074584219,0.09146893,0.029197421874999997
1.744,0.029961482421874998,0.033222074,0.074583109,0.091464031,0.029196984
1.748,0.029960074218749997,0.033221977,0.074584289,0.09146018,0.029195477
1.752,0.029960711,0.033222309,0.074588109,0.09145793,0.029195812499999998
1.756,0.029962689,0.033222813,0.074587234,0.09145525,0.029194973
1.76,0.029963057,0.033222176,0.074584016,0.091452695,0.02919276
1.764,0.029962789,0.033221773,0.074584688,0.091450086,0.029194303
1.768,0.029961984,0.033221539,0.074586969,0.091447805,0.029195309
1.772,0.029962488281249998,0.033222109374999996,0.074589984,0.091445828,0.029197287109374997
1.776,0.029963795,0.033222878906249996,0.074590422,0.091444414,0.029200002
1.78,0.029963729,0.033224055,0.074588312,0.091442141,0.029198728515624998
1.784,0.029964768,0.03322573,0.074588711,0.091439891,0.029198561
1.788,0.029965305,0.033226132812499996,0.074591023,0.091437547,0.029198963
1.792,0.029964833984374998,0.033226535,0.074593477,0.091434898,0.029200404
1.796,0.029965605,0.033227105,0.074593172,0.09143225,0.029202082
1.8,0.029966878906249998,0.033226902343749996,0.074591492,0.091429602,0.029202986
1.804,0.029966845703124998,0.033226,0.074590828,0.091426648,0.029203925781249997
1.808,0.029967752,0.033226132812499996,0.074592938,0.091424539,0.029204059
1.812,0.029967785,0.033226234,0.074595016,0.091423359,0.029203355468749997
1.816,0.029967718749999997,0.033227004,0.074595219,0.091422359,0.029202852
1.82,0.029967752,0.033228246,0.074592602,0.091420914,0.029202248046874997
1.824,0.029968421874999998,0.033229586,0.074591766,0.091419742,0.029202349609374997
1.828,0.029970299,0.033230691,0.074593641,0.091418336,0.029200740234374998
1.832,0.029970266,0.033230758,0.074595281,0.091416922,0.029198795
1.836,0.029968791,0.033230691,0.074595117,0.091416859,0.029201076
1.84,0.029969764,0.033230324218749996,0.074593609,0.091416422,0.029203824218749997
1.844,0.029970499999999997,0.03322952,0.074592766,0.091414945,0.029204662109374998
1.848,0.029969361,0.033228914062499997,0.074594047,0.091413977,0.029204295
1.852,0.029967884765624998,0.033228746,0.074595086,0.091413742,0.029203992
1.856,0.029967752,0.033228414062499996,0.074594047,0.09141357,0.029204094
1.86,0.029968890624999998,0.033229016,0.074591023,0.091413102,0.029204461
1.864,0.029969460937499998,0.033229551,0.074589648,0.091412734,0.029206004
1.868,0.029968086,0.03322952,0.074591531,0.091412398,0.029207145
1.872,0.029967684,0.033230289,0.074593438,0.091412133,0.029206172
1.876,0.029967215,0.033230425781249996,0.074592531,0.091411563,0.029207715
1.88,0.029967617,0.033229953124999996,0.074589453,0.091410789,0.029208352
1.884,0.029968724609374997,0.03323009,0.074588078,0.091410484,0.029208384765624998
1.888,0.029967785,0.033229922,0.074588781,0.091409516,0.029207479
1.892,0.029967752,0.033229586,0.074590422,0.09140925,0.029206673828124998
1.896,0.029968791,0.033229652,0.074589883,0.091409383,0.029205031
1.9,0.029968556640624998,0.033229988,0.074587508,0.091409352,0.029205667968749998
1.904,0.029967752,0.033230121093749995,0.074586969,0.091409312,0.029208619
1.908,0.029968857421874998,0.033230559,0.074588781,0.091409586,0.029210229
1.912,0.029969361,0.033231093749999996,0.074589516,0.091409953,0.029209322265624997
1.916,0.029967281249999998,0.033231496,0.074588984,0.091409883,0.029207378906249998
1.92,0.029967482,0.033231395,0.074587203,0.091409617,0.029206641
1.924,0.029968824,0.033231195312499996,0.074586398,0.091409383,0.029206205
1.928,0.029968188,0.03323066,0.074587039,0.091409312,0.029205667968749998
1.932,0.029967416015624998,0.033230023,0.074588508,0.091409445,0.029204796874999998
1.936,0.029966746,0.033229148,0.07458818,0.091409984,0.029203992
1.94,0.029967449218749997,0.033229016,0.074586836,0.09141032,0.029205367187499998
1.944,0.029968086,0.033228210937499995,0.074586469,0.091410719,0.029205367187499998
1.948,0.029968188,0.033227676,0.074588008,0.091411125,0.02920577
1.952,0.029967482,0.033228344,0.074589586,0.09141082,0.029206037
1.956,0.029966645,0.033228883,0.074589922,0.091411227,0.029207346
1.96,0.029967148437499997,0.033229016,0.074586969,0.091411359,0.029207814453124998
1.964,0.029966544921874998,0.033228949,0.074585359,0.091410891,0.029208552734374997
1.968,0.029967383,0.033228613,0.074587102,0.091410484,0.029207613
1.972,0.029966344,0.033228414062499996,0.07458868,0.091409953,0.029204863
1.976,0.029966142578124997,0.03322848,0.07458707,0.091408812,0.029202584
1.98,0.029966443359374997,0.033228312499999996,0.074584117,0.091407266,0.029202047
1.984,0.029966678,0.033227641,0.074581875,0.091405992,0.029201611328124998
1.988,0.029966611,0.033227039,0.074581977,0.091404789,0.029199398
1.992,0.029966176,0.033226164,0.074581938,0.091403109,0.029195443
1.996,0.029965068,0.033226164,0.074582211,0.091401336,0.029192727
2,0.029964768,0.033226402343749996,0.074580633,0.091399625,0.029191955078124998
2.004,0.029963257812499998,0.033225094,0.074577648,0.09139818,0.029196851562499997
2.008,0.029959705,0.033222980468749996,0.07457507,0.091396875,0.029196582031249998
2.012,0.029957357421874997,0.033222309,0.074575469,0.091395469,0.029193967
2.016,0.029954609,0.033221136718749995,0.074574063,0.091393023,0.029194537109374998
2.02,0.029950184,0.033218891,0.074570242,0.091390703,0.029196617
2.024,0.029943443,0.033217113,0.074568227,0.091389836,0.029199131
2.028,0.029939621093749997,0.033215941,0.074568359,0.091389195,0.029198461
2.032,0.029936402343749998,0.03321393,0.074568125,0.091388523,0.029199131
2.036,0.029932982421874997,0.033213391,0.074567859,0.091388328,0.029202818359374997
2.04,0.029931072265624997,0.033213426,0.074566219,0.091387859,0.029206439
2.044,0.029927751953124998,0.033211984374999996,0.074564609,0.091386383,0.029208686
2.048,0.029924031,0.033211078,0.074565547,0.091385508,0.029210061
2.052,0.029921517578124997,0.033210242187499996,0.074567594,0.091385344,0.029212474609374997
2.056,0.029919539,0.033209367,0.074567727,0.091385008,0.029215156
2.06,0.029917326171874998,0.033208898437499995,0.07456625,0.091384406,0.029219113
2.064,0.029914141,0.033208664,0.07456625,0.091384133,0.029223404296874998
2.068,0.029911057,0.033208699,0.074569234,0.091384906,0.029225785
2.072,0.029909045,0.033209367,0.074572219,0.091387055,0.029228132812499998
2.076,0.029907166,0.033208965,0.074572148,0.09138957,0.029231351562499997
2.08,0.029905792968749997,0.033208664,0.074569062,0.091390336,0.029234502
2.084,0.029904719,0.033209438,0.074569133,0.091391109,0.02923752
2.088,0.029904385,0.033210609,0.074574164,0.091393523,0.029241308593749998
2.092,0.029905759765624998,0.033211684,0.074577578,0.091395469,0.029244896484374998
2.096,0.029907132812499997,0.033211078,0.074576109,0.091397109,0.029244662
2.1,0.029908643,0.033210742187499996,0.074573422,0.091398281,0.029243822
2.104,0.029910084,0.033211047,0.074574266,0.091399391,0.029246236328124998
2.108,0.029910753906249997,0.033211281249999995,0.074577578,0.091401266,0.029250529296874998
2.112,0.029911357,0.033212219,0.074579523,0.091402945,0.029252104
2.116,0.029912633,0.033213492,0.074580195,0.091403008,0.0292515
2.12,0.029913738281249998,0.033214164062499996,0.074578687,0.0914015,0.029250629
2.124,0.029913369,0.033215738,0.074577109,0.091400023,0.029250461
2.128,0.029912699218749998,0.033216609,0.074579461,0.091398383,0.029252037
2.132,0.029913639,0.033216344,0.074581773,0.091396508,0.029251166
2.136,0.029915851562499998,0.033216441,0.074581102,0.091394867,0.029250295
2.14,0.029917660156249998,0.033216344,0.074579625,0.09139282,0.029250059
2.144,0.029919002,0.033215605,0.074578187,0.091390703,0.029251938
2.148,0.029920311,0.03321584,0.074580461,0.091389531,0.029254217
2.152,0.029921316,0.033217012,0.074583047,0.091388828,0.029255121
2.156,0.029921182,0.033216675781249996,0.074582039,0.091387453,0.029254015624999997
2.16,0.029920879,0.033216109,0.074580602,0.091385008,0.029254451171874998
2.164,0.029921014,0.03321641,0.074580664,0.091382125,0.029256396
2.168,0.029921316,0.033217684,0.074582977,0.091379039,0.029256697
2.172,0.029921215,0.033218621,0.074584688,0.091376461,0.029256162109374997
2.176,0.029921517578124997,0.033218789,0.074583445,0.091374078,0.029256967
2.18,0.029921785,0.033219395,0.07458157,0.091371156,0.029256295
2.184,0.029923427734374997,0.033219426,0.074581102,0.09136818,0.029255490234374997
2.188,0.029922421874999997,0.033219863,0.074583719,0.091365391,0.029257301
2.192,0.029922623,0.03322077,0.074586836,0.091363211,0.029259816
2.196,0.029922824218749998,0.033220867187499996,0.074586805,0.091360703,0.029259615234374998
2.2,0.029923529296874998,0.033220902,0.074584789,0.091357516,0.029259883
2.204,0.0299245,0.033221305,0.074583281,0.091354094,0.029260922
2.208,0.029925439453124997,0.033221707,0.074584719,0.091351781,0.029260654296874997
2.212,0.029925775,0.033221203,0.074586328,0.091349367,0.029260453
2.216,0.029924869140624998,0.033220938,0.074585492,0.091346516,0.029262195
2.22,0.029926814,0.033221605,0.074582547,0.091342563,0.029263236328124997
2.224,0.029925506,0.033221875,0.074582039,0.091338539,0.029263504
2.228,0.029925205,0.033221809,0.074584555,0.091334719,0.0292629
2.232,0.029925574218749997,0.033221339843749996,0.074587133,0.091332031,0.02926327
2.236,0.029926412109374998,0.033221707,0.0745865,0.091329656,0.029263537109374998
2.24,0.029925943,0.033221906249999995,0.074585156,0.091326906,0.029263604
2.244,0.029926781,0.033221641,0.074583984,0.091324391,0.029261693
2.248,0.029926847656249998,0.033220836,0.074584391,0.091321469,0.029260754
2.252,0.02992668,0.033220199218749996,0.074585594,0.091318859,0.029261258
2.256,0.029927719,0.033219894531249995,0.074585227,0.091315672,0.029260922
2.26,0.029927417968749998,0.033219594,0.074583719,0.091311516,0.029261426
2.264,0.029927585937499997,0.033220266,0.074584219,0.091307125,0.029262598
2.268,0.029926211,0.033220699,0.074586328,0.091303469,0.029262465
2.272,0.029927049,0.033221406,0.074587875,0.091300078,0.02926327
2.276,0.029927787,0.033221371,0.074587172,0.091296328,0.029264777
2.28,0.029928793,0.033220902,0.074584789,0.091291898,0.029264677734374998
2.284,0.029929361328124997,0.033220668,0.074583586,0.091289016,0.029264242187499998
2.288,0.029929295,0.033219965,0.074584016,0.091286539,0.029262498
2.292,0.029928054687499997,0.033219863,0.074586234,0.091283617,0.029262999999999997
2.296,0.029929127,0.033220133,0.074586195,0.091280398,0.029263035
2.3,0.029928691,0.033219695,0.074583953,0.091276414,0.029264041
2.304,0.029927953,0.033219461,0.074582039,0.09127225,0.029264408203124998
2.308,0.029928757812499998,0.033219527,0.074582375,0.091268766,0.029262666015624998
2.312,0.029928725,0.03321973,0.074584219,0.091265281,0.029261357
2.316,0.029927283,0.033220367187499995,0.07458375,0.091262094,0.029261459
2.32,0.029928154,0.033221707,0.074581641,0.09125807,0.029261558593749997
2.324,0.029930066406249997,0.033222277343749995,0.07458043,0.091254219,0.02926015
2.328,0.029929027343749998,0.033222277343749995,0.074581805,0.091250195,0.029260822
2.332,0.029929328124999998,0.033221977,0.074583953,0.0912455,0.029261056640624998
2.336,0.029930501953124997,0.033220836,0.07458325,0.091240102,0.029261594
2.34,0.029930636718749997,0.033220031,0.074581133,0.091235273,0.029263972656249998
2.344,0.029930970703124997,0.033219426,0.074580094,0.091230547,0.029265314
2.348,0.029931541,0.033219527,0.074581438,0.091225648,0.029263604
2.352,0.029930568,0.033219965,0.074583445,0.091220992,0.029263705078124997
2.356,0.029929328124999998,0.033220902,0.074581773,0.091215523,0.029264041
2.36,0.029929664,0.033221136718749995,0.074578453,0.091210328,0.029262498
2.364,0.029929361328124997,0.033220602,0.074577148,0.091206234,0.029262934
2.368,0.029929060546874997,0.033220801,0.074579523,0.091202078,0.029263873
2.372,0.029930603515624998,0.033220465,0.074581203,0.09119782,0.029264107421874998
2.376,0.029931574,0.033219762,0.074581602,0.091193227,0.029265615
2.38,0.02993258,0.03321916,0.074580266,0.091188297,0.029266554687499998
2.384,0.029933117,0.033219058593749996,0.074579055,0.091183336,0.029267292968749997
2.388,0.029932145,0.03321909,0.074579828,0.091178813,0.029265615
2.392,0.029931039062499998,0.033218789,0.07458157,0.091174758,0.029266789
2.396,0.029931139,0.033218422,0.074580969,0.091170297,0.029268365
2.4,0.029930535,0.033218285,0.074578383,0.091165703,0.029267593749999998
2.404,0.029931642578124997,0.033218285,0.074577344,0.091161609,0.029264174
2.408,0.029930166,0.033218387,0.074578453,0.091157789,0.029264945
2.412,0.029929328124999998,0.033218824,0.074580266,0.091153297,0.029266053
2.416,0.029929094,0.033219359,0.074580461,0.091148938,0.029265951
2.42,0.029929328124999998,0.033219695,0.074578922,0.091144648,0.029268029296874998
2.424,0.02992973,0.033219863,0.074577781,0.091139852,0.02926823
2.428,0.029929361328124997,0.033219797,0.074579992,0.091134789,0.029269203124999997
2.432,0.029929898437499998,0.0332205,0.074582813,0.091130633,0.029268533
2.436,0.029929898437499998,0.033221339843749996,0.074582375,0.091126305,0.029266287109374997
2.44,0.029929597656249998,0.033221339843749996,0.074579758,0.091121813,0.029263771
2.444,0.029928826,0.033221136718749995,0.074578086,0.091117625,0.029263604
2.448,0.029927953,0.03322077,0.074578719,0.091113297,0.029263035
2.452,0.029929697,0.033220867187499996,0.074580367,0.09110807,0.02926176
2.456,0.029928523,0.033220199218749996,0.074579359,0.091103039,0.029262999999999997
2.46,0.029925641,0.033219328124999996,0.074577109,0.091098242,0.029263604
2.464,0.029924568359374997,0.033218621,0.074576109,0.091093687,0.029262732
2.468,0.029925271484374998,0.033218285,0.074576578,0.091088891,0.029260588
2.472,0.029924064,0.033217684,0.074577852,0.091084469,0.029260083984374997
2.476,0.029922857421874997,0.033216578,0.074576141,0.091080539,0.02926042
2.48,0.029923494,0.033216242,0.074571914,0.091076516,0.029260252
2.484,0.029924166,0.033215438,0.074569102,0.091072398,0.029258139
2.488,0.029923427734374997,0.033214297,0.074569234,0.091068477,0.029255523
2.492,0.029921551,0.033213426,0.074570609,0.091064781,0.029255121
2.496,0.029922421874999997,0.03321366,0.074569734,0.091061602,0.029254886718749998
2.5,0.029922421874999997,0.033213292968749995,0.074567859,0.09105818,0.029256127
2.504,0.029921818359374998,0.033213457,0.074566383,0.091053922,0.029256664
2.508,0.029921182,0.033213828,0.074567156,0.091049797,0.029255892578124998
2.512,0.029922154,0.033213894531249996,0.074568898,0.091045672,0.029255121
2.516,0.029922824218749998,0.033213426,0.074568195,0.091041281,0.029255322265624998
2.52,0.029922086,0.033213359,0.074565344,0.091036219,0.029255892578124998
2.524,0.029923494,0.033213023437499996,0.074563703,0.091031727,0.029254049
2.528,0.029923494,0.033212753906249996,0.074565008,0.091027234,0.029252775
2.532,0.029923494,0.033213391,0.074566383,0.091023078,0.029253580078124997
2.536,0.029922421874999997,0.03321423,0.074565609,0.091019352,0.029255054687499997
2.54,0.029921517578124997,0.033214902,0.074563734,0.091015398,0.029255121
2.544,0.029922824218749998,0.033215035156249996,0.074562094,0.091010938,0.029254619
2.548,0.029923227,0.033214664062499996,0.074562859,0.091005711,0.029253144531249997
2.552,0.029921818359374998,0.033214531,0.074564703,0.09100068,0.029252943
2.556,0.029921683593749998,0.033214633,0.074564938,0.090995781,0.029253310546874998
2.56,0.029921986328124997,0.03321443,0.074562961,0.090990422,0.029253277
2.564,0.02992108,0.033214062499999995,0.074561922,0.090985289,0.029251835937499998
2.568,0.029920677734374998,0.033213492,0.074563297,0.0909805,0.029251635
2.572,0.029920511718749997,0.033213324,0.074566453,0.090975805,0.029252908203124997
2.576,0.02991974,0.033213156,0.074566016,0.090970844,0.029253244
2.58,0.029920176,0.033212891,0.07456343,0.090965977,0.029252641
2.584,0.029920980468749997,0.033213156,0.07456132,0.090961422,0.029251467
2.588,0.029921785,0.033213055,0.07456125,0.090956422,0.029249523437499998
2.592,0.029920443,0.033212855,0.074563664,0.090950992,0.029250193
2.596,0.02991974,0.03321232,0.074563266,0.090946164,0.029249791
2.6,0.029920275390624997,0.033211648,0.07456068,0.090941367,0.029249355
2.604,0.029920812499999998,0.033211582,0.074561422,0.090937109,0.029248416015624997
2.608,0.029920511718749997,0.033211145,0.074563602,0.090932688,0.029247109
2.612,0.029919639,0.033209738,0.074564039,0.090929102,0.029250295
2.616,0.029917125,0.033207895,0.074562258,0.090925844,0.029252976562499998
2.62,0.029916018,0.033208062499999996,0.074561055,0.090923164,0.029253478515624997
2.624,0.029916555,0.033209133,0.074560414,0.090919813,0.029254787
2.628,0.029917023,0.033208730468749996,0.07455968,0.090915688,0.029254217
2.632,0.029917627,0.033208262,0.074560313,0.090911766,0.029252271
2.636,0.029917729,0.033208195,0.074560352,0.090907539,0.029251869140624998
2.64,0.029916320312499998,0.033208230468749995,0.074557734,0.090903352,0.029252439453124997
2.644,0.029916119,0.033208563,0.074556125,0.090899859,0.029253346
2.648,0.029918131,0.033209301,0.074557563,0.090896742,0.029251902343749997
2.652,0.029917092,0.033208999999999995,0.074559742,0.090893461,0.02925207
2.656,0.029915984,0.033208999999999995,0.074558977,0.090889969,0.029251232
2.66,0.029914275390624998,0.033209301,0.074557461,0.090885945,0.029249857421874997
2.664,0.029913201171874997,0.033208363,0.074557133,0.090882328,0.02925016
2.668,0.029911895,0.033207793,0.074559172,0.090878977,0.029251433593749997
2.672,0.029912967,0.033208465,0.074561086,0.09087643,0.029252205
2.676,0.029913537,0.033208730468749996,0.074560414,0.090873375,0.029251902343749997
2.68,0.029914711,0.033208395,0.07455693,0.090869422,0.029252373
2.684,0.029915012,0.033207426,0.074553641,0.090865164,0.02925016
2.688,0.029914878906249998,0.033206785,0.074554852,0.090862375,0.029251433593749997
2.692,0.029914645,0.033206316,0.074557164,0.090859531,0.029251635
2.696,0.029912564,0.033206117,0.074557227,0.090856609,0.029249455
2.7,0.029911357,0.033205746093749995,0.074554313,0.090853289,0.029249121
2.704,0.029911156249999998,0.033205043,0.074552305,0.090849641,0.029247343749999998
2.708,0.029912029,0.033205043,0.074552805,0.090846422,0.029247209
2.712,0.029912732421874998,0.033205176,0.07455368,0.090843164,0.029248584
2.716,0.029910988,0.033204773,0.074553641,0.090839812,0.029250932
2.72,0.029911459,0.033204273,0.074551734,0.090835789,0.029251064
2.724,0.0299129,0.033204371,0.07454975,0.090831734,0.029250427734374997
2.728,0.02991223,0.033205379,0.074551266,0.090828516,0.029248953124999998
2.732,0.029909580078124998,0.033206352,0.074553539,0.090825094,0.02924902
2.736,0.029908810546874998,0.033207289,0.074554008,0.090821406,0.029250898
2.74,0.029909045,0.033208195,0.0745525,0.090817453,0.029251803
2.744,0.029909078,0.033208832031249996,0.074550859,0.090813594,0.029250461
2.748,0.029909414062499997,0.033208195,0.074550961,0.090810344,0.029250093749999997
2.752,0.029908775,0.033207960937499996,0.074552367,0.090807055,0.029249053
2.756,0.029909615,0.033208730468749996,0.074551797,0.090803938,0.029247914062499998
2.76,0.029910621,0.033209367,0.07454925,0.090801258,0.029245668
2.764,0.029909849609374997,0.033209906,0.074548242,0.09079757,0.029247008
2.768,0.029907871,0.03321034,0.074549688,0.090793711,0.029250295
2.772,0.029907469,0.033210375,0.074550828,0.090790297,0.029248349609374998
2.776,0.029907669921874998,0.033209805,0.074550187,0.090787008,0.029244896484374998
2.78,0.029908240234374998,0.033208699,0.074548281,0.090783016,0.029245197265624998
2.784,0.02990777,0.033208699,0.074546266,0.090779164,0.029246236328124998
2.788,0.029907970703124998,0.033208563,0.074546203,0.090774969,0.029247277
2.792,0.029908574218749998,0.033208027,0.074547711,0.090771352,0.0292456
2.796,0.029907938,0.033208128906249995,0.074548609,0.090767594,0.02924674
2.8,0.029907234374999998,0.033207625,0.074546437,0.090763305,0.029246337890624998
2.804,0.029907703124999997,0.033207289,0.074544391,0.090759445,0.029245767578124998
2.808,0.029906295,0.033206921874999996,0.07454593,0.090756195,0.029246908203124998
2.812,0.029904418,0.033206285,0.074547375,0.090753148,0.029245365234374997
2.816,0.029905121093749997,0.033206316,0.074546938,0.090749625,0.029245164
2.82,0.029907066,0.033206218749999995,0.074544828,0.090745531,0.029245902343749998
2.824,0.02990834,0.033206551,0.074542984,0.090741445,0.029245633
2.828,0.029909111328124998,0.033206184,0.07454382,0.090737758,0.029244996
2.832,0.029908441,0.033205949218749996,0.074546672,0.090734367,0.029244561
2.836,0.029907166,0.033206453,0.074546938,0.090730883,0.029244729
2.84,0.02990616,0.033206484,0.074544891,0.09072632,0.029245098
2.844,0.029905156,0.033206785,0.07454382,0.090722297,0.029244996
2.848,0.029907267578124997,0.033206652,0.074544656,0.090719148,0.029245398
2.852,0.029907334,0.033207188,0.074546,0.090716867,0.029244224609374998
2.856,0.029907568359374997,0.033207691406249996,0.074545125,0.090714055,0.029243689
2.86,0.029909414062499997,0.033207691406249996,0.07454057,0.090710563,0.029240302734374998
2.864,0.029909279296874997,0.033207793,0.074538891,0.090707719,0.029240335937499997
2.868,0.029909514,0.033206117,0.074540633,0.090704797,0.029240973
2.872,0.029908408,0.033204508,0.074542883,0.090702617,0.029242749999999998
2.876,0.029908843749999997,0.033204137,0.074542109,0.090700609,0.029241375
2.88,0.029908207,0.0332035,0.074539961,0.090697594,0.029240873046874997
2.884,0.029908172,0.033203667968749996,0.074537852,0.090694539,0.029240639
2.888,0.029908675781249998,0.033203734,0.074538117,0.090691625,0.029240302734374998
2.892,0.029909447,0.03320293,0.074538961,0.090689211,0.029238559
2.896,0.029909580078124998,0.033202563,0.074538156,0.090686961,0.029238594
2.9,0.029909414062499997,0.033202695312499995,0.074535703,0.090683844,0.029238928
2.904,0.029908609,0.033202832,0.074534367,0.090681094,0.029239063
2.908,0.029908172,0.033202965,0.074535,0.090678477,0.029239564
2.912,0.029906664062499998,0.033203098,0.074537281,0.090675594,0.029240203
2.916,0.029908138671874997,0.033204172,0.074538016,0.090673312,0.029239498
2.92,0.029909144531249997,0.033204039062499996,0.074535203,0.090670297,0.029237720703124997
2.924,0.029908172,0.033203133,0.074533461,0.090667313,0.029237117187499998
2.928,0.029907736,0.033203098,0.074534094,0.09066507,0.029237588
2.932,0.029906396,0.033202965,0.074536578,0.090663422,0.029238961
2.936,0.029905189453124998,0.033202664,0.074536172,0.090661211,0.029237654
2.94,0.029906195312499998,0.033201656249999996,0.074534063,0.090658461,0.029237285156249997
2.944,0.02990616,0.033201488,0.074533328,0.090655516,0.029239129
2.948,0.029906664062499998,0.033201925781249995,0.074534836,0.090651922,0.029239967
2.952,0.029905893,0.033202328,0.074536547,0.090649313,0.029238225
2.956,0.029905523437499998,0.033202262,0.074536445,0.090646227,0.029237720703124997
2.96,0.029906328,0.033202195,0.074533859,0.09064368,0.029236849609374997
2.964,0.029907502,0.033202094,0.074532758,0.090641328,0.029237186
2.968,0.029908508,0.03320216,0.074533828,0.090638914,0.029237720703124997
2.972,0.029908643,0.03320216,0.074536273,0.090636469,0.029238693359374998
2.976,0.029907904,0.033201656249999996,0.074535742,0.090633953,0.029238525
2.98,0.02990673,0.03320102,0.074533289,0.090630867,0.029237789
2.984,0.02990673,0.033200988281249996,0.074532352,0.090627047,0.02923866
2.988,0.029907469,0.03320132,0.074533359,0.090623766,0.029238861328124997
2.992,0.029906093749999998,0.033201859,0.074535305,0.090621281,0.029237318
2.996,0.029905926,0.033202027343749996,0.074534703,0.0906185,0.029235374999999997
3,0.029906496,0.033201625,0.074532422,0.090615516,0.029236883
3.004,0.029905691406249997,0.033200918,0.074531078,0.090612031,0.029237352
3.008,0.029905592,0.033200047,0.074532922,0.090609008,0.029237018
3.012,0.029906126953124997,0.033200652,0.074535266,0.090606461,0.029237117187499998
3.016,0.029906697265624997,0.033201156249999995,0.074535234,0.090603211,0.029235708984374997
3.02,0.029907099609374998,0.033200418,0.074531719,0.090599586,0.029234604
3.024,0.029907502,0.033200484,0.074530008,0.090596641,0.029236916
3.028,0.02990777,0.03320082,0.07453118,0.090593656,0.02923752
3.032,0.029905759765624998,0.033201156249999995,0.074532586,0.09059057,0.029238057
3.036,0.029904719,0.033201391,0.074532148,0.090587719,0.029238594
3.04,0.02990358,0.033201156249999995,0.074530406,0.090584633,0.029238627
3.044,0.029903848,0.033201523,0.074529805,0.09058232,0.029237150390624998
3.048,0.029903244,0.033201355,0.07453068,0.090580711,0.02923618
3.052,0.029902406,0.033201391,0.074532219,0.090578297,0.029237588
3.056,0.029902908,0.033202094,0.074531781,0.090575719,0.029235541015624998
3.06,0.029903646484374997,0.033201859,0.074529336,0.090572898,0.029234334
3.064,0.029903881,0.033201859,0.074527828,0.090570289,0.029235708984374997
3.068,0.029902472656249998,0.033201925781249995,0.074528828,0.090567102,0.029234973
3.072,0.029901232,0.033201523,0.074530141,0.090563914,0.029234502
3.076,0.029902139,0.033201121,0.074529703,0.090561297,0.029234132812499997
3.08,0.029902171874999998,0.033200586,0.074527555,0.090558516,0.029233396
3.084,0.029901132812499998,0.033199379,0.074525813,0.090555969,0.029234535156249998
3.088,0.029901601562499998,0.033198773437499995,0.074525578,0.090552719,0.029235508
3.092,0.029902004,0.033198809,0.074526383,0.090549969,0.029235039
3.096,0.029903177734374998,0.033198641,0.074525313,0.090548055,0.029234436
3.1,0.029903042968749998,0.033198238,0.074522594,0.090545273,0.029236279296874997
3.104,0.029902541,0.033198641,0.074520953,0.090541852,0.029235742
3.108,0.029902406,0.033198137,0.074523469,0.090538469,0.029236447
3.112,0.029902809,0.033198742,0.07452675,0.090536086,0.029236045
3.116,0.029902139,0.033199008,0.074525945,0.090533375,0.029234804687499998
3.12,0.029901064453124997,0.033198473,0.074523938,0.090529953,0.029235006
3.124,0.029900395,0.033198102,0.074522297,0.090526531,0.029234837890624997
3.128,0.029900730468749998,0.033197632812499996,0.074521922,0.090523953,0.029234837890624997
3.132,0.029901535,0.033198003906249995,0.074524141,0.090521836,0.029235508
3.136,0.029903914,0.033198172,0.074524039,0.090519258,0.029232859
3.14,0.029902339843749997,0.033197734374999996,0.074522695,0.090516375,0.029232994
3.144,0.029901064453124997,0.033197668,0.074521859,0.090513422,0.029233865
3.148,0.029900628906249997,0.033197398,0.074523367,0.090510305,0.029233598
3.152,0.029901634765624997,0.033197902343749995,0.074525516,0.090507891,0.029232691406249997
3.156,0.029902842,0.033199074,0.074524844,0.090505547,0.029232792968749997
3.16,0.029901869,0.033199309,0.074522359,0.090502898,0.029233664062499998
3.164,0.029902505859374998,0.033198742,0.074520789,0.09050025,0.029233598
3.168,0.029903379,0.033198809,0.074520617,0.090498336,0.029232926
3.172,0.029903076171874998,0.033198976562499996,0.074521656,0.090496359,0.029231016
3.176,0.029902406,0.033199477,0.074521023,0.090493102,0.029229306640624998
3.18,0.029903042968749998,0.033199914062499995,0.074517766,0.090488547,0.029229339843749997
3.184,0.029902305,0.033199277,0.074516664,0.090484492,0.029230345703124997
3.188,0.029902305,0.033198809,0.074518437,0.090481977,0.029231553
3.192,0.029899187499999997,0.033197801,0.07452075,0.090479992,0.029232826
3.196,0.029896941,0.033197132812499995,0.07452075,0.09047832,0.029234703124999997
3.2,0.029898215,0.033196863281249996,0.074518203,0.090475805,0.029233765624999998
3.204,0.029898986,0.033196895,0.074516094,0.090473289,0.029231652343749998
3.208,0.029899623046874997,0.03319673,0.074517367,0.090470672,0.029232926
3.212,0.029900563,0.033197297,0.074518609,0.090468094,0.029231183593749998
3.216,0.029900293,0.033197699,0.074518203,0.090466047,0.029231115234374997
3.22,0.029899791,0.033197835937499996,0.074516023,0.090464172,0.029230848
3.224,0.029900025390624998,0.033197535,0.074515117,0.090461117,0.029228736328124998
3.228,0.029899287,0.033197164,0.074515922,0.090458367,0.029229406
3.232,0.029898518,0.033197566,0.074517937,0.090457094,0.029229004
3.236,0.029899758,0.033197602,0.074517867,0.09045582,0.029229004
3.24,0.029899254,0.033196895,0.074515086,0.090452734,0.029227898
3.244,0.029898013671874998,0.033196863281249996,0.074513273,0.090449719,0.029228300781249997
3.248,0.029898449218749998,0.033197132812499995,0.074515758,0.090447711,0.029229238
3.252,0.029898986,0.033196695312499996,0.074518273,0.090445828,0.029227898
3.256,0.029898482421874997,0.03319616,0.074519109,0.090443086,0.029228836
3.26,0.02989835,0.033195855,0.074516898,0.090440266,0.029229943
3.264,0.029898953,0.033195387,0.074514445,0.090436977,0.029229070312499997
3.268,0.029897678,0.033194883,0.07451525,0.090433797,0.029227395
3.272,0.029898281,0.033195422,0.074516258,0.090432219,0.029226322
3.276,0.029899019531249998,0.033195488,0.074516156,0.090430539,0.029227797
3.28,0.029899724609374997,0.033195523,0.074513172,0.090427492,0.029229238
3.284,0.029900460937499998,0.033195722656249996,0.074511297,0.090424344,0.029230244
3.288,0.029898013671874998,0.033194984,0.074513039,0.090422258,0.029230848
3.292,0.029897980468749998,0.033194984,0.074515453,0.090420484,0.029230412
3.296,0.029898316,0.033195254,0.074515922,0.09041807,0.029231685546874997
3.3,0.029898046874999997,0.033195789,0.074514445,0.090415859,0.029232826
3.304,0.029897947,0.033196527,0.07451418,0.090413844,0.029232893
3.308,0.029898852,0.03319673,0.074516023,0.090412438,0.029232457
3.312,0.029898215,0.03319666,0.074518203,0.090411031,0.02923343
3.316,0.029897980468749998,0.033196761718749995,0.074517328,0.090409484,0.029234469
3.32,0.029898182,0.033196293,0.074514883,0.090407172,0.029236514
3.324,0.029897544921874998,0.03319532,0.074512305,0.090404422,0.029233697265624997
3.328,0.0298956,0.033194113,0.074512703,0.090401742,0.029230814
3.332,0.029895265624999997,0.033193344,0.074514047,0.090399594,0.029228502
3.336,0.029893689453124997,0.033192973,0.074512906,0.09039668,0.029226355
3.34,0.029893789,0.033192871,0.074510227,0.090394102,0.029225484
3.344,0.029893488,0.033192438,0.074509187,0.09039175,0.029223941
3.348,0.029892012,0.033191969,0.074510898,0.090389203,0.029222968749999998
3.352,0.029891912,0.033192137,0.074513141,0.090387094,0.029222801
3.356,0.029890402343749997,0.033191969,0.074512469,0.090384844,0.029223473
3.36,0.029889966796874997,0.033191363,0.074509656,0.090382367,0.029224746
3.364,0.029889363281249998,0.033190695,0.074507711,0.090380086,0.029225283203124997
3.368,0.029890201,0.033191063,0.074508047,0.090377469,0.029221762
3.372,0.029890503906249997,0.033191531249999996,0.074509148,0.090375891,0.029220789
3.376,0.029890402343749997,0.033191266,0.074507773,0.090374016,0.029220152
3.38,0.029891476562499998,0.033190660156249996,0.074504086,0.090371102,0.029220455
3.384,0.029891074218749997,0.033190527,0.074502813,0.090368688,0.02922193
3.388,0.029890168,0.033189387,0.074502984,0.090366336,0.029221191
3.392,0.029888492187499997,0.033188113,0.074504523,0.090364125,0.029219348
3.396,0.029886982,0.033188781,0.074504188,0.090362352,0.029219482421874998
3.4,0.029886447265624998,0.033189086,0.074502242,0.090360805,0.029221695312499997
3.404,0.029886145,0.033188883,0.074501641,0.090358461,0.029222701171874997
3.408,0.029885811,0.033189184,0.074502008,0.090356477,0.029220419921874997
3.412,0.029886480468749997,0.033190390624999996,0.07450332,0.090354164,0.02921841
3.416,0.029887486328124997,0.033191195,0.074503281,0.090352188,0.029218342
3.42,0.029885441406249998,0.033190828124999995,0.074502547,0.090349906,0.029220287
3.424,0.029886044921874997,0.033190761718749996,0.074500836,0.090348102,0.029220621
3.428,0.02988685,0.033190863281249997,0.074501242,0.090346219,0.029220018
3.432,0.029888156,0.033192066,0.074502477,0.090344039,0.029218008
3.436,0.029886480468749997,0.033192336,0.07450107,0.090342063,0.029218476562499998
3.44,0.029885105,0.033191867,0.074498922,0.090340523,0.029220756
3.444,0.029884971,0.033192,0.074498391,0.090339016,0.029220287
3.448,0.029886044921874997,0.033192539,0.074499227,0.0903375,0.029218141
3.452,0.029886213,0.033191934,0.074500062,0.090335227,0.029216062499999997
3.456,0.029884971,0.033191195,0.074500062,0.090332773,0.029216498046874997
3.46,0.029884468749999997,0.033191566,0.074498289,0.090330227,0.029216096
3.464,0.029884133,0.033192402,0.074496883,0.090328047,0.029216363281249998
3.468,0.029882592,0.033192707,0.074499531,0.090325938,0.029216732
3.472,0.029883328124999997,0.033193207,0.07450157,0.090323758,0.029215693
3.476,0.029883966796874998,0.033193309,0.074500398,0.090321211,0.029215123
3.48,0.029884771,0.033193109,0.07449718,0.090318664,0.029215727
3.484,0.029884535,0.033192504,0.074495609,0.090316109,0.029217939453124998
3.488,0.029882625,0.033192805,0.074497117,0.090313898,0.029219281
3.492,0.029882691,0.033194012,0.074499297,0.090311758,0.029217972656249997
3.496,0.029882826171874998,0.033194551,0.074499094,0.090309437,0.029217503906249997
3.5,0.029882558593749997,0.033194785,0.07449618,0.090307266,0.029217002
3.504,0.029882826171874998,0.033194883,0.074494867,0.090305148,0.02921576
3.508,0.029883229,0.033194918,0.074496883,0.090302703,0.029215626953124997
3.512,0.029883898437499997,0.033195722656249996,0.074498453,0.090299648,0.029214822
3.516,0.029883932,0.033196527,0.074497984,0.090297508,0.029213816
3.52,0.029882322265624997,0.033196461,0.074496273,0.090295461,0.029214252
3.524,0.029882223,0.033196527,0.074496039,0.090292977,0.029214888671874998
3.528,0.02988192,0.033196492187499996,0.074497117,0.090290367,0.029214921874999997
3.532,0.029881754,0.033195688,0.074498625,0.090288016,0.02921509
3.536,0.029881518,0.033194551,0.074497719,0.090285438,0.029215458984374998
3.54,0.029879439,0.033193710937499996,0.074495273,0.090283086,0.029217503906249997
3.544,0.029879506,0.033193645,0.074492961,0.090279234,0.02921727
3.548,0.029878970703124997,0.033193645,0.074494766,0.090275711,0.029216363281249998
3.552,0.029878265624999997,0.033193746,0.074498289,0.090272797,0.029215525
3.556,0.029878736,0.033194215,0.074497617,0.090269375,0.029214587890624998
3.56,0.029879339843749998,0.033193676,0.074494195,0.090265188,0.029213748046874998
3.564,0.029878701171874997,0.033193008,0.074492555,0.090261633,0.029213279
3.568,0.029876959,0.033192402,0.074493961,0.090258945,0.029211502
3.572,0.029877226562499998,0.033191531249999996,0.074496039,0.0902565,0.029210127
3.576,0.0298785,0.033190961,0.074495141,0.090253414,0.029209021
3.58,0.029878333984374998,0.033190863281249997,0.074491312,0.090250836,0.029209625
3.584,0.029878064,0.033191429687499996,0.074490242,0.09024832,0.029211133
3.588,0.029878835937499997,0.033191699218749995,0.074490781,0.090245906,0.029211234
3.592,0.029877965,0.033191800781249996,0.074491719,0.090243898,0.029210966796874998
3.596,0.029877563,0.033191398,0.074490742,0.090241383,0.029211402343749998
3.6,0.029878265624999997,0.033190863281249997,0.074488766,0.090238633,0.029211904296874997
3.604,0.029877328124999998,0.033190461,0.07448793,0.090235852,0.029211703
3.608,0.029877293,0.033190492,0.074488563,0.090232797,0.029210195
3.612,0.02987773,0.033190625,0.074490172,0.090230484,0.029209724609374998
3.616,0.029876557,0.033190293,0.074489875,0.090228406,0.029211133
3.62,0.029876488,0.033190191,0.074486891,0.090225961,0.029211838
3.624,0.029876689453124997,0.033189922,0.074485078,0.090223109,0.029210027
3.628,0.02987659,0.033189285,0.074485484,0.090220992,0.02920949
3.632,0.029875551,0.033189621093749996,0.074487258,0.09021925,0.029209357
3.636,0.029874611328124998,0.033190191,0.074487898,0.090217203,0.029208721
3.64,0.029875751953124998,0.03319009,0.07448632,0.090215297,0.029208417968749997
3.644,0.029876791015624998,0.033190258,0.074485242,0.090213281,0.029206943359374998
3.648,0.029876253906249997,0.033190426,0.074487156,0.090211273,0.029205635
3.652,0.02987441,0.033191597656249995,0.074490313,0.090209531,0.029207445
3.656,0.029873674,0.033192137,0.074491281,0.090207883,0.029207145
3.66,0.029873740234374998,0.033191195,0.074488531,0.090205305,0.029207613
3.664,0.029873371,0.033190929687499995,0.074486758,0.090203289,0.029207211
3.668,0.02987223,0.033190426,0.074487492,0.090201781,0.029206943359374998
3.672,0.02987223,0.033190324,0.074490375,0.090200039,0.029208249999999998
3.676,0.029871561,0.033189656,0.074490313,0.090197625,0.029209724609374998
3.68,0.029872969,0.033189016,0.074487227,0.090194344,0.029209457
3.684,0.029874109,0.033189016,0.074485313,0.090191422,0.029208283203124998
3.688,0.029872632812499997,0.033188781,0.074486656,0.090188812,0.029207881
3.692,0.029873169921874998,0.033188113,0.0744885,0.090186227,0.029207546874999997
3.696,0.029873203124999997,0.033187742,0.07448793,0.090183742,0.029206037
3.7,0.029874008,0.03318791,0.074484539,0.090181867,0.029204863
3.704,0.029874545,0.033188516,0.074482695,0.090179789,0.029205535
3.708,0.029872902343749997,0.033188582,0.074483805,0.090177172,0.029205199
3.712,0.029871896484374997,0.033188648437499996,0.074485883,0.090174828,0.029206004
3.716,0.029871059,0.033188348,0.074485781,0.09017225,0.029206976562499997
3.72,0.02987307,0.033187507812499996,0.074483398,0.090170469,0.029206271484374997
3.724,0.029873674,0.033187004,0.074481625,0.090168859,0.029207111
3.728,0.029874143,0.033187507812499996,0.074482969,0.090167617,0.029206271484374997
3.732,0.02987441,0.03318791,0.074485148,0.090166008,0.029205199
3.736,0.029874512,0.033187609374999996,0.074484375,0.09016457,0.029205333984374998
3.74,0.029874343749999997,0.033187507812499996,0.074482633,0.090163094,0.029206775
3.744,0.029874545,0.03318791,0.074481359,0.090160984,0.029205400390624997
3.748,0.029874746093749998,0.033188078,0.074482195,0.090158703,0.029204697
3.752,0.029875214843749998,0.033187977,0.074483938,0.090157492,0.029204965
3.756,0.029875248046874997,0.033188145,0.074483336,0.090155719,0.029206910156249998
3.76,0.029874242187499997,0.033187945,0.074481727,0.090153539,0.029205301
3.764,0.029873472656249997,0.03318791,0.074481656,0.090151156,0.029204898437499998
3.768,0.029873271,0.033188246,0.074484375,0.09014968,0.02920701
3.772,0.029872064,0.033187878906249996,0.074486016,0.090147336,0.029208117
3.776,0.02987223,0.033187710937499997,0.074486047,0.090144852,0.029207313
3.78,0.029871896484374997,0.033187477,0.074484273,0.090143281,0.029207513671874998
3.784,0.029871023437499998,0.033187207,0.074483031,0.090141398,0.029208117
3.788,0.029870656,0.033187004,0.074484375,0.090139492,0.02920758
3.792,0.029871092,0.033187441,0.074486617,0.090138453,0.029207244140624998
3.796,0.029872533,0.033188613,0.074486719,0.090137344,0.029207546874999997
3.8,0.029871359,0.033188246,0.074483875,0.090135734,0.029206943359374998
3.804,0.029870621093749997,0.033187309,0.074480352,0.09013382,0.029204596
3.808,0.029870119,0.033186504,0.074481125,0.090131977,0.029204830078124997
3.812,0.029871527,0.033186602,0.074484977,0.090130906,0.029205904296874998
3.816,0.029873137,0.03318657,0.074483805,0.09012943,0.029205166
3.82,0.029871896484374997,0.033185597656249996,0.074480047,0.090127422,0.029204662109374998
3.824,0.029871393,0.033185832,0.074479852,0.090125008,0.029204697
3.828,0.029871461,0.033185597656249996,0.074482125,0.090123766,0.029203959
3.832,0.029871059,0.03318466,0.07448293,0.090123664,0.029204127
3.836,0.029871393,0.033184426,0.074482125,0.090121687,0.029206373046874998
3.84,0.029873203124999997,0.033184426,0.074480016,0.090119008,0.029207982421874997
3.844,0.029871225,0.033183887,0.074478906,0.090116055,0.029206607
3.848,0.029870789,0.033183585937499996,0.074480555,0.090113609,0.029207881
3.852,0.02987223,0.033182914,0.074483906,0.090112062,0.029209457
3.856,0.029871292968749998,0.033182714843749996,0.074483672,0.090110555,0.029209088
3.86,0.029871191406249997,0.033182211,0.074480852,0.090108273,0.029209121
3.864,0.029870891,0.033181977,0.074478172,0.090105258,0.029209189
3.868,0.029869984,0.033182012,0.074478711,0.090102445,0.029209357
3.872,0.029869414,0.033181742,0.074481125,0.09009993,0.029208955078124998
3.876,0.029869449,0.033181773,0.074481523,0.090098219,0.029209423828124997
3.88,0.029870891,0.033182145,0.074479617,0.090097047,0.029210865234374998
3.884,0.029869783,0.033181875,0.074478305,0.090095398,0.029210363
3.888,0.029869281249999997,0.03318191,0.074479312,0.09009282,0.029210496
3.892,0.029870017578124998,0.033181641,0.074480617,0.090089664,0.029206373046874998
3.896,0.029871125,0.033181707,0.074479242,0.090086719,0.029202082
3.9,0.029870822,0.033181574218749996,0.074476125,0.090084539,0.029202484374999997
3.904,0.029869449,0.033181977,0.074473648,0.090082461,0.029202686
3.908,0.029868207,0.033181574218749996,0.074475258,0.090080578,0.029203523
3.912,0.029868645,0.033181238,0.074478008,0.090078773,0.029203656249999998
3.916,0.029868710937499997,0.033180902,0.074478141,0.090076523,0.029201443
3.92,0.029867705078124997,0.033180266,0.07447643,0.09007418,0.029201746093749998
3.924,0.029867101562499998,0.033179863,0.074475859,0.090071867,0.029202852
3.928,0.029867839843749997,0.03318,0.07447693,0.090069688,0.02920168
3.932,0.029868744,0.03318107,0.074478844,0.090068109,0.029201578
3.936,0.029868845703124997,0.033182078,0.074478539,0.090065859,0.029202082
3.94,0.029867035,0.033181773,0.074476094,0.090062977,0.029201846
3.944,0.029865960937499998,0.033181707,0.074474789,0.090060938,0.029201512
3.948,0.029865224609374998,0.033182246,0.074475922,0.090059258,0.029201611328124998
3.952,0.029865660156249998,0.033182781,0.074476867,0.090058188,0.029199197265624997
3.956,0.029865492,0.033182746,0.074475992,0.090057211,0.029199164062499998
3.96,0.029865257812499997,0.033181977,0.074473141,0.090056406,0.029200473
3.964,0.029865861,0.033181406249999996,0.074470961,0.090055266,0.029201310546874998
3.968,0.029866029,0.033180902,0.074471836,0.090053758,0.029201478515624997
3.972,0.029865928,0.033180636718749996,0.074474383,0.090051477,0.029201242187499997
3.976,0.029866432,0.033181238,0.074475156,0.090049063,0.029201310546874998
3.98,0.029866666015624998,0.03318107,0.074472141,0.090046719,0.029201277
3.984,0.029867873,0.033180902,0.074470227,0.090044844,0.029202316406249998
3.988,0.029868710937499997,0.033180636718749996,0.074471336,0.090042898,0.029201813
3.992,0.029867101562499998,0.033180703124999995,0.074473477,0.090040547,0.029201512
3.996,0.029867303,0.033181273,0.074472672,0.090037703,0.029199533
4,0.029866297,0.033181273,0.074469758,0.090034516,0.029199332031249997
4.004,0.029865928,0.033181137,0.074468281,0.090032102,0.029200137
4.008,0.029866531249999998,0.033180535156249996,0.074469055,0.090029484,0.029201076
4.012,0.029867369,0.033180969,0.074471836,0.090028141,0.029202986
4.016,0.029868342,0.03318107,0.074471469,0.090026234,0.029203857
4.02,0.029868005859374998,0.033180804687499996,0.074468719,0.090023922,0.029203253906249997
4.024,0.029868107421874998,0.033180031,0.074467211,0.090021742,0.029202953
4.028,0.029867201,0.033179394531249996,0.074467711,0.090019766,0.029202082
4.032,0.029867035,0.033179629,0.074469555,0.090018523,0.029201846
4.036,0.029866128906249997,0.03317993,0.074469586,0.090016813,0.029200371
4.04,0.02986576,0.033179027,0.074467742,0.090014031,0.029197354
4.044,0.029865828124999997,0.033178355,0.074466305,0.090011484,0.029198593749999998
4.048,0.029864654296874998,0.033178656,0.074468516,0.090009875,0.029200506
4.052,0.029864184,0.033178992,0.074470328,0.090008797,0.029202014
4.056,0.029864621093749998,0.033179125,0.074469156,0.090006383,0.029201578
4.06,0.029864251953124997,0.033178624999999996,0.074465836,0.090003063,0.029201310546874998
4.064,0.029864721,0.033178086,0.074463688,0.090000555,0.029200807
4.068,0.029865357,0.033177516,0.074465367,0.089999375,0.029200807
4.072,0.029865994140624998,0.03317698,0.07446707,0.089999109,0.029200337890624997
4.076,0.029866363,0.033176781249999995,0.074466367,0.089997805,0.029201578
4.08,0.02986633,0.033176344,0.074464188,0.089995922,0.029203322265624998
4.084,0.029866999999999998,0.033176344,0.074463086,0.089994117,0.029200506
4.088,0.029867035,0.033176344,0.074464492,0.089992672,0.029199332031249997
4.092,0.029866263671874997,0.033176879,0.074465031,0.089991234,0.029198227
4.096,0.029866934,0.033177082,0.074464289,0.08998925,0.029196951
4.1,0.029866297,0.033177449218749995,0.074462781,0.089986266,0.029197824218749998
4.104,0.029866934,0.033177382812499996,0.074461445,0.089983852,0.029197555
4.108,0.02986633,0.033177047,0.074461375,0.089981742,0.029195375
4.112,0.02986385,0.033176781249999995,0.074463891,0.089980297,0.029196179687499997
4.116,0.029863582,0.033176547,0.074464258,0.089977984,0.029198158203124998
4.12,0.029863783203124997,0.033176445,0.074462547,0.089975234,0.029197891
4.124,0.029865023,0.033176746,0.074461008,0.089972859,0.029196951
4.128,0.029864922,0.033175875,0.074461742,0.089971148,0.029196783
4.132,0.029862979,0.033175472656249996,0.074463352,0.089969602,0.029196549
4.136,0.029862173828124998,0.033175438,0.074462953,0.089968266,0.029196482
4.14,0.029862811,0.03317584,0.074460602,0.089966687,0.02919665
4.144,0.029862072265624998,0.033175672,0.074458992,0.089964844,0.029197824218749998
4.148,0.029862576,0.03317534,0.074460437,0.08996307,0.029197755859374997
4.152,0.029864018,0.033175472656249996,0.074462984,0.089962563,0.02919732
4.156,0.029864654296874998,0.033176145,0.074463188,0.089961797,0.029197957
4.16,0.029864889,0.033176277,0.074459664,0.089960016,0.02919732
4.164,0.029865693359374997,0.033176074,0.074457281,0.089957906,0.029197722656249998
4.168,0.029862642578124998,0.033176176,0.07445893,0.089955789,0.029199398
4.172,0.02986234,0.033176547,0.074461609,0.089954281,0.02919923
4.176,0.029862642578124998,0.033176578,0.074461977,0.08995375,0.029196951
4.18,0.029861133,0.033175875,0.074459836,0.089951969,0.029196416015624997
4.184,0.029861234,0.033175371093749996,0.074458258,0.089949352,0.029194570312499998
4.188,0.029861,0.033175605,0.074458086,0.089947242,0.029192594
4.192,0.029860328,0.033175504,0.074458125,0.089944664,0.029190783203124997
4.196,0.029859289,0.033175707,0.074457617,0.089942617,0.029190012
4.2,0.029858686,0.033175809,0.074454938,0.089940406,0.029190111328124997
4.204,0.029859490234374998,0.03317584,0.074453125,0.089938023,0.029190447
4.208,0.029858955,0.033175707,0.074454336,0.089936578,0.029188736
4.212,0.029856874999999998,0.033175101562499996,0.07445675,0.089934867,0.029187229
4.216,0.029855803,0.033174566,0.074456211,0.089932594,0.029188501953124998
4.22,0.029855736,0.033174332031249996,0.074453125,0.089930313,0.029190111328124997
4.224,0.0298554,0.033174266,0.07445182,0.089927625,0.029190648437499998
4.228,0.029854998046874998,0.033174266,0.074452188,0.089925484,0.029190447
4.232,0.029853523437499998,0.033173863,0.074453766,0.089924375,0.029190381
4.236,0.029852617,0.033173762,0.074453359,0.089923367,0.029190346
4.24,0.029851812499999998,0.033173762,0.074450008,0.089920992,0.029187765624999997
4.244,0.02985292,0.033174836,0.074447797,0.089918977,0.029185150390624998
4.248,0.029851746,0.033175504,0.074448766,0.089917906,0.029185352
4.252,0.029851511718749998,0.033176008,0.074450414,0.089917469,0.029186525
4.256,0.029852283,0.033176511718749996,0.074450211,0.089916227,0.029187832
4.26,0.029854025390624997,0.033176848,0.074446758,0.089913344,0.029187162109374998
4.264,0.029853053,0.033176511718749996,0.074444977,0.089910867,0.029184880859374998
4.268,0.029853087890624998,0.033176176,0.074446055,0.08990932,0.029184445312499998
4.272,0.029853455078124997,0.033176277,0.074448063,0.08990768,0.029184880859374998
4.276,0.029853455078124997,0.033175941,0.07444843,0.089905672,0.029184313
4.28,0.029853322,0.03317584,0.074446992,0.089903859,0.029185217
4.284,0.029853725,0.033175809,0.07444468,0.089902383,0.029186658
4.288,0.029853556640624997,0.033174836,0.074444508,0.089901273,0.029187697
4.292,0.029852550781249997,0.033174332031249996,0.07444575,0.089900305,0.029189742
4.296,0.029852851562499998,0.033174367,0.07444525,0.089899031,0.029188736
4.3,0.029853221,0.033174199,0.0744425,0.089896852,0.029186256
4.304,0.029854126953124997,0.033174332031249996,0.074440758,0.089895242,0.029185082
4.308,0.029854427734374998,0.033174867,0.074442531,0.089893398,0.029185048828124997
4.312,0.029854695,0.033175472656249996,0.074444508,0.089891953,0.029184379
4.316,0.029853523437499998,0.033175742187499996,0.074443977,0.089890852,0.029184177734374997
4.32,0.029852953124999998,0.033175305,0.074442469,0.089888633,0.029184814
4.324,0.029852014,0.033175438,0.074441094,0.089887492,0.029186123046874998
4.328,0.029851242187499998,0.033174867,0.074441227,0.089886828,0.029187597656249998
4.332,0.029852082031249998,0.033173695,0.074441156,0.089885453,0.029187363
4.336,0.029851881,0.033172855,0.074440289,0.089883172,0.029186357
4.34,0.029851881,0.033173257812499996,0.074437336,0.089880086,0.029185553
4.344,0.029850773,0.033173492,0.074436094,0.089877977,0.029185283
4.348,0.029851511718749998,0.033173762,0.07443707,0.0898765,0.029183874999999998
4.352,0.029850539062499997,0.033173695,0.07443868,0.08987425,0.029183508
4.356,0.029848929687499998,0.033173089843749996,0.074439484,0.089872141,0.029183508
4.36,0.029849633,0.033172285,0.074438445,0.089870164,0.029184580078124998
4.364,0.029849668,0.033172188,0.074436664,0.08986932,0.029184144531249998
4.368,0.029849432,0.033172320312499996,0.074437836,0.089868219,0.029183003906249998
4.372,0.029847320312499998,0.033171550781249996,0.074439781,0.089867008,0.029182099609374998
4.376,0.029846046874999997,0.03317098,0.074438477,0.089865133,0.029180824
4.38,0.02984826,0.033171516,0.074435227,0.089862688,0.029179215
4.384,0.029851311,0.033171684,0.074432609,0.089861313,0.029178443
4.388,0.029850539062499997,0.033171684,0.074433516,0.089860234,0.029179283
4.392,0.029849164,0.033172254,0.074435258,0.089858828,0.029178845703124998
4.396,0.029849968749999997,0.033172891,0.074435523,0.089857789,0.029178376953124998
4.4,0.029849668,0.03317316,0.074433516,0.089856383,0.029177839843749998
4.404,0.02984826,0.033173359374999996,0.074432141,0.089854609,0.029178008
4.408,0.02984742,0.033172926,0.074433781,0.089852961,0.029179215
4.412,0.029847857,0.033172422,0.074436094,0.089851922,0.029177908
4.416,0.029847723,0.033171918,0.074436125,0.089850547,0.029177707
4.42,0.029847588,0.033171816,0.074434086,0.089848602,0.029180154
4.424,0.029848125,0.033173089843749996,0.074432008,0.089846289,0.029180691406249997
4.428,0.029847152,0.033173895,0.074433008,0.089843742,0.029180421874999998
4.432,0.029846248,0.033174699,0.074434922,0.089842031,0.029181596
4.436,0.029846212890624998,0.033174836,0.074434352,0.089840727,0.029181764
4.44,0.029845711,0.033174398437499995,0.074431469,0.089838477,0.029181863281249998
4.444,0.029845609,0.033174367,0.074429391,0.089836234,0.029180289
4.448,0.029844705,0.033174332031249996,0.074429156,0.089834422,0.029179047
4.452,0.029843834,0.033174164,0.074430695,0.089832914,0.029178277
4.456,0.029844035156249997,0.033174601562499996,0.074430969,0.089831875,0.029179851562499998
4.46,0.029845912109374997,0.033174938,0.074428648,0.089829961,0.029180691406249997
4.464,0.029846314453124998,0.033174699,0.074427039,0.089827984,0.029179316
4.468,0.029846046874999997,0.033174699,0.07442768,0.089825977,0.029175428
4.472,0.029845207031249998,0.033174601562499996,0.074429055,0.089823523,0.029172711
4.476,0.029844738281249998,0.03317393,0.074428555,0.089821109,0.029175058593749997
4.48,0.029843967,0.033172320312499996,0.074425133,0.089819,0.029178041
4.484,0.029843195312499998,0.033171383,0.074423625,0.08981682,0.029177002
4.488,0.029844135,0.033171648,0.074425469,0.089814203,0.029174521
4.492,0.029843967,0.033171414,0.074427883,0.089812125,0.029176064453124997
4.496,0.029844804687499997,0.033170813,0.074427242,0.089809609,0.029177104
4.5,0.029844771484374998,0.033170746,0.074425094,0.089807328,0.029178041
4.504,0.029843967,0.033171449218749996,0.074424695,0.08980532,0.029177674
4.508,0.029842961,0.033171582,0.074425805,0.089803641,0.029177539062499997
4.512,0.029842627,0.033171347656249996,0.074426945,0.089802234,0.029176197
4.516,0.029841922,0.033170914,0.074426305,0.089801031,0.029175863
4.52,0.029841553,0.033169773,0.074423727,0.089799719,0.029175494140624997
4.524,0.029840213,0.033168902,0.074422883,0.089798719,0.029175594
4.528,0.029839708984374998,0.033169167968749996,0.074425094,0.089798281,0.029176299
4.532,0.029840111,0.033168566406249995,0.074426234,0.08979707,0.029176869
4.536,0.029841822265624998,0.033168867,0.074425195,0.08979493,0.029177438
4.54,0.029841990234374997,0.033169504,0.074422117,0.08979268,0.029176434
4.544,0.029842861328124998,0.033169371,0.074419367,0.089789961,0.02917583
4.548,0.029844201171874998,0.033168633,0.07441943,0.089787586,0.029174857
4.552,0.029843633,0.033168063,0.074420937,0.089785875,0.029174957031249997
4.556,0.029843464843749997,0.03316766,0.074421078,0.089784063,0.029174521
4.56,0.029844302734374998,0.033166855,0.07441943,0.08978168,0.029174287
4.564,0.029843396,0.033166453,0.074416953,0.089778531,0.029174789062499998
4.568,0.029843264,0.033166789,0.074417352,0.089776789,0.029173582
4.572,0.029843129,0.033166957,0.074420273,0.089774914,0.029173146
4.576,0.029842425781249998,0.03316682,0.074420367,0.089772797,0.029174455078124998
4.58,0.029842458984374997,0.033165984,0.07441725,0.089770148,0.029175996
4.584,0.029840748046874997,0.033165379,0.074416914,0.089768039,0.029178176
4.588,0.029840380859374998,0.033165781,0.074418188,0.089765922,0.029178544921874997
4.592,0.029841150390624998,0.033165449,0.074419664,0.089763945,0.029178479
4.596,0.02984152,0.033165144531249996,0.074419164,0.089762672,0.029180556640624997
4.6,0.02984152,0.03316518,0.074416719,0.089760664,0.029180958984374998
4.604,0.02983991,0.033164644531249995,0.074415141,0.089757875,0.029179449218749997
4.608,0.02983934,0.033164777,0.07441675,0.089755195,0.029178746
4.612,0.029839174,0.033165211,0.074418563,0.089753281,0.029178041
4.616,0.029838267578124997,0.033165211,0.074417953,0.089752211,0.029178980468749997
4.62,0.029838703124999998,0.033164809,0.074416414,0.08975057,0.029178544921874997
4.624,0.029839843749999997,0.033163973,0.074413695,0.089748695,0.029178443
4.628,0.02984018,0.033163602,0.074413164,0.089746648,0.029176869
4.632,0.029840312499999997,0.03316384,0.074415203,0.089744734,0.029176902
4.636,0.029839843749999997,0.033164039,0.074416008,0.089742727,0.029177104
4.64,0.029840447,0.033164309,0.074414234,0.089740609,0.029176197
4.644,0.029842392578124998,0.033165144531249996,0.074412828,0.089738367,0.029175158
4.648,0.029841117,0.033165684,0.074414336,0.089736086,0.029175494140624997
4.652,0.029838267578124997,0.03316682,0.074417016,0.089734406,0.029175662
4.656,0.029838771,0.033167727,0.074416008,0.089732328,0.029173951
4.66,0.029839643,0.033167425781249996,0.074413031,0.089730047,0.02917318
4.664,0.02983857,0.033166621,0.074412422,0.089727805,0.029175392578124997
4.668,0.029837529,0.033165613,0.074413031,0.089726461,0.029176131
4.672,0.029837295,0.033164945,0.074414734,0.089724719,0.029175695
4.676,0.02983743,0.033165211,0.074415172,0.089723477,0.029175863
4.68,0.029837832031249997,0.033165113,0.07441293,0.089721703,0.029174689
4.684,0.029838168,0.033164676,0.074411453,0.089720258,0.02917251
4.688,0.029837697265624998,0.033164508,0.074412891,0.089718414,0.029173416
4.692,0.029836592,0.033164476562499996,0.074414805,0.089716906,0.029175494140624997
4.696,0.029837529,0.033164676,0.074414875,0.089715234,0.029173416
4.7,0.029838267578124997,0.03316434,0.07441132,0.089712719,0.02917241
4.704,0.029837865,0.03316377,0.074408773,0.089709867,0.029172141
4.708,0.029838871,0.033163469,0.074409641,0.08970782,0.029169726562499998
4.712,0.029839006,0.033163938,0.074411047,0.089706781,0.029168219
4.716,0.029837932,0.033164309,0.07441075,0.089705945,0.029167882812499997
4.72,0.029836960937499997,0.033164171874999995,0.074408398,0.089703797,0.029169324218749997
4.724,0.029836424,0.033163402343749995,0.074406625,0.08970118,0.029170900390624997
4.728,0.029836357421874998,0.033162496,0.074406961,0.089698266,0.0291706
4.732,0.029836893,0.033162867,0.074409406,0.089696055,0.029170967
4.736,0.029837730468749997,0.033163102,0.074409672,0.089694508,0.029171537
4.74,0.029837730468749997,0.033163301,0.07440743,0.089692031,0.029171738281249998
4.744,0.029837093749999998,0.033163199,0.074405016,0.089689078,0.029173281
4.748,0.029838369140624998,0.033163,0.074405383,0.089687805,0.029175158
4.752,0.029839039,0.033162363281249996,0.074407195,0.089686797,0.029173281
4.756,0.029839475,0.03316166,0.074405852,0.089685289,0.029172341796874997
4.76,0.029840279296874998,0.033161523,0.074403945,0.08968368,0.029173449218749998
4.764,0.029839475,0.033161691,0.07440193,0.089682641,0.029173582
4.768,0.02983743,0.033162632812499995,0.074402367,0.089681805,0.029174186
4.772,0.029836523437499998,0.033163805,0.074404141,0.089680359,0.029173852
4.776,0.029836859,0.033164711,0.074404813,0.089679023,0.029173482421874997
4.78,0.029836357421874998,0.033164777,0.074403336,0.089677242,0.029176164
4.784,0.029835685546874997,0.033164039,0.074401492,0.089675234,0.029178242187499998
4.788,0.029833640624999998,0.033163469,0.074402297,0.089673258,0.029178611
4.792,0.029832634765624998,0.033163973,0.074404242,0.089671375,0.029176668
4.796,0.029833707,0.033164644531249995,0.074403945,0.089669836,0.029175326
4.8,0.029834311,0.033164441,0.074401898,0.089668289,0.029177305
4.804,0.02983592,0.033164105468749996,0.074400758,0.089666445,0.029178479
4.808,0.029837631,0.033163805,0.07440243,0.089665039,0.029178376953124998
4.812,0.029838703124999998,0.033163234374999996,0.074404109,0.089663094,0.02917526
4.816,0.029837261718749997,0.033162699,0.074402633,0.08966075,0.02917365
4.82,0.029836523437499998,0.033161691,0.074399781,0.089658805,0.029174824
4.824,0.029836255859374997,0.033161926,0.074397906,0.089657461,0.029175460937499998
4.828,0.029836792968749998,0.033162129,0.074397875,0.089655984,0.029172611328124997
4.832,0.029835451,0.033162832,0.074400086,0.089654078,0.029169123
4.836,0.029834748046874998,0.033163503906249996,0.074401094,0.089652234,0.029170765624999997
4.84,0.029835787109374998,0.033163469,0.074399414,0.089650594,0.029172308593749998
4.844,0.029835753906249998,0.033163132812499996,0.074397641,0.089648945,0.029173516
4.848,0.029835049,0.033162395,0.07439868,0.089647336,0.029173717
4.852,0.029836322,0.033162261718749995,0.074400758,0.089646133,0.029172476562499997
4.856,0.029835753906249998,0.033161992187499996,0.074400422,0.089644422,0.029171973
4.86,0.029834982,0.033160953124999996,0.074397172,0.089641875,0.029172141
4.864,0.029834076171874998,0.033160148,0.074395563,0.089640164,0.029172645
4.868,0.029834145,0.033160688,0.074397367,0.089639125,0.02917241
4.872,0.029833977,0.033161258,0.07440032,0.089638383,0.0291706
4.876,0.029833640624999998,0.033161426,0.074400391,0.089637648,0.029171302734374998
4.88,0.029832634765624998,0.033161390624999995,0.074397977,0.089636711,0.029170633
4.884,0.029832971,0.033161426,0.074395328,0.0896355,0.029170129
4.888,0.029833842,0.03316159,0.074395422,0.089634094,0.02917157
4.892,0.029834511718749998,0.033162160156249995,0.074397641,0.089633086,0.029171672
4.896,0.029833640624999998,0.033162363281249996,0.074398109,0.089632148,0.029170296874999998
4.9,0.02983183,0.033162160156249995,0.074396531,0.089630336,0.029171135
4.904,0.029832133,0.033162195,0.074395023,0.089628297,0.029171470703124997
4.908,0.029831662109374997,0.033161758,0.074395563,0.089626313,0.029171335937499997
4.912,0.02983126,0.033161289,0.074397539,0.089625313,0.029170801
4.916,0.029831395,0.033160922,0.074397672,0.089624305,0.029168285156249998
4.92,0.029831965,0.033161258,0.074395492,0.089623031,0.029168051
4.924,0.029832232421874997,0.033161121093749996,0.07439368,0.089621055,0.029167949
4.928,0.029832667968749997,0.033160754,0.074394891,0.089618875,0.029167213
4.932,0.029834076171874998,0.033159980468749996,0.074396867,0.089616992,0.029168219
4.936,0.029833977,0.033159949,0.074397273,0.089615383,0.029167882812499997
4.94,0.029832938,0.033159914,0.074395563,0.089613203,0.029167514
4.944,0.029833305,0.033160117,0.074393578,0.089610789,0.029168990234374997
4.948,0.029833640624999998,0.033159816,0.074393852,0.089608281,0.029169123
4.952,0.029832434,0.033159512,0.074395227,0.089606164,0.029167714843749998
4.956,0.029832166015624998,0.033159145,0.074394688,0.089604219,0.029167380859374998
4.96,0.029833171874999998,0.033159512,0.074393078,0.089602312,0.029167816406249998
4.964,0.029833875,0.03315968,0.074391031,0.089600898,0.029168486
4.968,0.029831730468749998,0.033158941406249996,0.074391437,0.089599156,0.029170498
4.972,0.029830121,0.033158305,0.074394188,0.089597953,0.029169627
4.976,0.029830656249999997,0.033158039,0.074394453,0.089596477,0.029169156249999998
4.98,0.029831127,0.033158641,0.074391875,0.089594703,0.029169961
4.984,0.029831094,0.033158574,0.07438932,0.089593391,0.029168219
4.988,0.029830623046874997,0.033158004,0.074390328,0.089592352,0.029168018
4.992,0.029831127,0.033157734,0.074392711,0.089591852,0.029168621
4.996,0.029830959,0.033158473,0.0743915,0.089590508,0.029168318359374997
5,0.029831127,0.033159547,0.074388789,0.089588563,0.02916966
5.004,0.029831932,0.033160016,0.074387313,0.089586281,0.029166542968749997
5.008,0.029832902,0.033159949,0.074388086,0.089584305,0.029164631
5.012,0.029832166015624998,0.033159980468749996,0.074390227,0.089582531,0.029164631
5.016,0.029831898437499997,0.033159648,0.074389461,0.089581187,0.029165201
5.02,0.029832499999999998,0.033159480468749995,0.074386141,0.08957968,0.029165402343749997
5.024,0.029833171874999998,0.033159078,0.074383422,0.089577602,0.029165369140624998
5.028,0.0298324,0.033158375,0.074384398,0.08957582,0.029164363281249998
5.032,0.029831496,0.033157602,0.074386039,0.089573813,0.029163592
5.036,0.029831730468749998,0.033157367,0.074386578,0.089571937,0.029164195
5.04,0.02983126,0.033157468749999995,0.074385234,0.089569383,0.029165972656249997
5.044,0.029830121,0.03315777,0.074384227,0.089567172,0.029166978515624997
5.048,0.029830656249999997,0.033158641,0.074385234,0.089565797,0.029165135
5.052,0.02982992,0.03315968,0.07438718,0.089565266,0.029164061
5.056,0.029829484,0.033159914,0.074387578,0.089564227,0.029164496
5.06,0.029830019531249998,0.033158977,0.074385969,0.08956332,0.029166273437499998
5.064,0.029828645,0.033157234,0.074384867,0.089562008,0.029166374999999998
5.068,0.029827136718749998,0.033156328124999995,0.074385,0.089560937,0.029163457
5.072,0.029825695312499997,0.033156160156249996,0.074386609,0.089559828,0.029162921874999997
5.076,0.029825963,0.033156598,0.074385734,0.089557984,0.029160373
5.08,0.029825023437499997,0.033156496,0.074382148,0.089555703,0.029158496
5.084,0.029822777,0.033156293,0.074380438,0.089553766,0.029159502
5.088,0.029822408203124998,0.033156563,0.074382047,0.089552352,0.029159300781249998
5.092,0.02982157,0.033156832,0.074384492,0.089551617,0.029159199218749998
5.096,0.029820766,0.033156929687499996,0.074384461,0.089549773,0.029157724609374998
5.1,0.029820264,0.033156125,0.074381039,0.089546586,0.029155712890624998
5.104,0.029819927734374998,0.033155019531249996,0.074377961,0.089544203,0.029154169921874997
5.108,0.029819927734374998,0.033154887,0.074377555,0.089542594,0.029153902
5.112,0.029820666015624997,0.033155019531249996,0.074378797,0.089540719,0.029154136718749998
5.116,0.029821438,0.033154887,0.074378625,0.089539047,0.029152124999999997
5.12,0.029821873,0.033154852,0.074376648,0.089537266,0.029150582
5.124,0.029821002,0.033154148437499996,0.074375078,0.089535422,0.029150852
5.128,0.029820498046874998,0.033153578,0.074376313,0.089534516,0.029150515624999998
5.132,0.029819927734374998,0.03315368,0.074378258,0.08953318,0.029151455
5.136,0.029820699,0.033154215,0.07437843,0.089530898,0.029150717
5.14,0.029821068359374998,0.033154082,0.074376016,0.089527406,0.029149677734374997
5.144,0.029821135,0.033154551,0.074373602,0.089524523,0.029149342
5.148,0.029820933593749998,0.033154988,0.074373836,0.089522617,0.029147531249999997
5.152,0.029821068359374998,0.033155558593749995,0.074376078,0.08952057,0.029145185546874997
5.156,0.0298209,0.033155558593749995,0.074377086,0.089518828,0.029146191406249997
5.16,0.029820834,0.033155656,0.074375172,0.089516477,0.029147498046874998
5.164,0.029820867,0.033156496,0.074374234,0.089513727,0.029146492187499998
5.168,0.029820095703124997,0.033156863,0.074375406,0.08951182,0.029145017578124998
5.172,0.029819056640624998,0.033156598,0.074377656,0.089510273,0.029144111
5.176,0.029818351562499998,0.033156664,0.074377492,0.089508266,0.029144816
5.18,0.029819225,0.033157066,0.074373898,0.08950582,0.029144984
5.184,0.029818117,0.033157266,0.074370719,0.089502664,0.02914485
5.188,0.029817213,0.033156429687499996,0.074372492,0.089500555,0.029145084
5.192,0.029816979,0.033155859,0.074374875,0.089498609,0.029144749999999997
5.196,0.029816844,0.033155422,0.074374906,0.089495891,0.029144447265624998
5.2,0.029817011718749998,0.03315559,0.074372992,0.089492539,0.029142871093749998
5.204,0.029817480468749998,0.033155824,0.074371148,0.089490164,0.029141564453124998
5.208,0.029818587890624998,0.033156094,0.074370313,0.089488414,0.029141732
5.212,0.029819324,0.033155926,0.074371484,0.089487078,0.029143945
5.216,0.02981966,0.033155824,0.074371055,0.089485133,0.02914542
5.22,0.029819357421874998,0.033155422,0.074368133,0.089482781,0.029146258
5.224,0.029819258,0.033155422,0.074367063,0.089480133,0.029145152343749998
5.228,0.029820129,0.033155758,0.074367031,0.089477719,0.029142033203124997
5.232,0.029819123,0.033155055,0.074368805,0.089474672,0.029140727
5.236,0.029818754,0.033155121,0.074369008,0.089473461,0.029139384765624998
5.24,0.029818654,0.033154352,0.074365789,0.089471148,0.029138111328124997
5.244,0.029818219,0.033153711,0.074364047,0.089468703,0.029138982421874998
5.248,0.029817447265624998,0.033153344,0.074365617,0.089466992,0.029140324
5.252,0.029816139,0.033154249999999996,0.074368367,0.089465953,0.029139652
5.256,0.029817246,0.033155156,0.074368539,0.08946418,0.029138748
5.26,0.029817882812499998,0.033154316406249995,0.074366523,0.08946193,0.029138178
5.264,0.029817179687499997,0.033153145,0.074364648,0.089459953,0.029139318
5.268,0.029816408,0.033152339843749996,0.074366055,0.089458344,0.029141128906249997
5.272,0.029815234,0.033151801,0.07436807,0.089456664,0.029141027343749997
5.276,0.029813256,0.033151734,0.074367297,0.089455258,0.029141396
5.28,0.029813960937499998,0.033151867187499996,0.074363336,0.08945325,0.029140088
5.284,0.029815502,0.033151867187499996,0.074361195,0.089450531,0.029138949218749998
5.288,0.029815502,0.033152473,0.0743625,0.089448586,0.029140658
5.292,0.029814396,0.033153277343749996,0.074364578,0.089447047,0.029138949218749998
5.296,0.029813423828124998,0.03315368,0.07436475,0.089445398,0.029139352
5.3,0.029813691,0.033153074,0.074362438,0.089443391,0.029140289062499998
5.304,0.029813926,0.033152172,0.074360422,0.089440539,0.02914049
5.308,0.029813859374999998,0.033151938,0.07436193,0.089438625,0.029140826
5.312,0.029813859374999998,0.033152238281249996,0.074363773,0.089436883,0.029139619
5.316,0.029814195,0.033151633,0.074363945,0.089434602,0.029137943359374998
5.32,0.029815838,0.033151063,0.074360258,0.089432328,0.029138313
5.324,0.029816306640624998,0.033150563,0.074357742,0.089429172,0.029137874999999997
5.328,0.029815066,0.033150191,0.074358547,0.089426523,0.029136334
5.332,0.02981567,0.033150191,0.074360188,0.089424812,0.029136835937499998
5.336,0.029814262,0.033150359,0.074360523,0.089423906,0.029138313
5.34,0.029813055,0.033150226562499996,0.074358813,0.089421969,0.029139619
5.344,0.029812352,0.033149789,0.074356867,0.089419953,0.029140189
5.348,0.029812552734374997,0.033150293,0.074357977,0.089417875,0.029140658
5.352,0.029812619,0.033150293,0.074360117,0.089415359,0.029137406249999998
5.356,0.029811211,0.033150059,0.074359352,0.089412813,0.029136099609374997
5.36,0.029810172,0.033149957031249996,0.074357172,0.089410234,0.029136970703124997
5.364,0.029810874999999997,0.033149523,0.074356164,0.089406711,0.029136031
5.368,0.029811277343749998,0.033149523,0.074357906,0.089404094,0.029135796874999998
5.372,0.029810943359374998,0.033150359,0.074360391,0.08940232,0.029136265624999998
5.376,0.029810406249999997,0.033151199,0.074359313,0.089400141,0.029136668
5.38,0.029810105468749997,0.033151535,0.074356266,0.089397492,0.029135931640624998
5.384,0.029810775,0.033150797,0.074355125,0.089395008,0.029135629
5.388,0.029809501953124998,0.033150059,0.074356102,0.089393031,0.029135796874999998
5.392,0.029809334,0.033150394531249995,0.074356766,0.089390781,0.029134054687499997
5.396,0.029809099609374997,0.033150629,0.074356,0.089387867,0.029133182
5.4,0.029808697,0.033149855468749996,0.074353781,0.089384383,0.029133785156249998
5.404,0.029809265624999998,0.033149422,0.074352211,0.089381461,0.029133854
5.408,0.029808898,0.033148984374999996,0.074353281,0.089379281,0.029133752
5.412,0.029807355468749998,0.033148852,0.074355328,0.089376773,0.029135025
5.416,0.029808328,0.033149253906249995,0.074355125,0.089374156,0.029134523437499997
5.42,0.029807656249999998,0.03314902,0.074353117,0.089371336,0.029135295
5.424,0.029806785156249998,0.033148785,0.074350969,0.089367953,0.029135998
5.428,0.029806919921874998,0.033149152,0.074351539,0.089365805,0.029135025
5.432,0.029806416,0.033148852,0.074353484,0.089363758,0.029134824218749997
5.436,0.029806919921874998,0.033148785,0.074354117,0.089360609,0.029134758
5.44,0.029807490234374998,0.033148414,0.074352477,0.089357656,0.029135697
5.444,0.029807691,0.033148214843749996,0.074351234,0.089355047,0.029135697
5.448,0.029808361328124998,0.033148281,0.074352578,0.089352195,0.029136937499999998
5.452,0.029808025,0.033147746,0.074354656,0.08934918,0.029135964843749997
5.456,0.029808025,0.03314684,0.074354688,0.089346562,0.029134422
5.46,0.029808361328124998,0.033147109,0.074353484,0.089344484,0.029136133
5.464,0.029808127,0.033147843749999996,0.074352578,0.089342469,0.029136937499999998
5.468,0.029807355468749998,0.033147945312499996,0.074352945,0.089339859,0.029135697
5.472,0.029806719,0.033147945312499996,0.074354352,0.089337344,0.029134958984374997
5.476,0.029806752,0.033148214843749996,0.074353922,0.089334797,0.029134088
5.48,0.029807422,0.033148648,0.074351836,0.089332852,0.029134121
5.484,0.029808093749999997,0.03314902,0.074350164,0.08933057,0.029134088
5.488,0.029806214843749998,0.033148316406249996,0.074351641,0.089328422,0.029135428
5.492,0.029806986,0.033148684,0.074354016,0.089326812,0.029136904
5.496,0.029807656249999998,0.033148684,0.07435325,0.089324602,0.029136099609374997
5.5,0.029807691,0.033148316406249996,0.074350937,0.089322016,0.029136736
5.504,0.029807824218749997,0.033148113281249995,0.074348953,0.089319336,0.029134322
5.508,0.029808662,0.033148551,0.0743505,0.089316484,0.029132343749999998
5.512,0.029807188,0.033148516,0.074353047,0.089314305,0.029132244
5.516,0.029805812499999997,0.033148617,0.074352641,0.089312125,0.029132244
5.52,0.029805880859374998,0.033148684,0.074350664,0.089308773,0.029133115
5.524,0.029806449,0.033149187499999996,0.074349359,0.089306094,0.02913325
5.528,0.029806551,0.033149656,0.074350969,0.08930425,0.029133953124999997
5.532,0.029806382812499997,0.033149051,0.074352914,0.089302102,0.029135394531249997
5.536,0.029806686,0.033148484374999995,0.074351937,0.089299586,0.029135863
5.54,0.029804874999999998,0.033148684,0.074349594,0.089296844,0.029134791015624998
5.544,0.02980417,0.033149051,0.074348117,0.089294125,0.02913117
5.548,0.029805343749999998,0.033148383,0.074349422,0.089291406,0.029130902343749997
5.552,0.029805812499999997,0.033146906,0.074350531,0.089288656,0.029129561
5.556,0.029806014,0.033146438,0.074350633,0.08928675,0.029129092
5.56,0.029805478515624997,0.033145668,0.074349023,0.089285039,0.029131874999999998
5.564,0.029804908203124997,0.033145297,0.074347516,0.089282828,0.029134289
5.568,0.029804104,0.033145363,0.074348789,0.089280578,0.029134054687499997
5.572,0.029803432,0.033145566,0.074351203,0.089278602,0.029133349609374998
5.576,0.029803398,0.033145699,0.074351102,0.089277094,0.029132848
5.58,0.02980417,0.033145867,0.074349188,0.089275383,0.029134691
5.584,0.029804472656249997,0.033145164062499996,0.074346477,0.089273336,0.029134691
5.588,0.029805008,0.033144762,0.074346844,0.089271195,0.029133919921874998
5.592,0.029805545,0.033144191406249995,0.074348992,0.089269719,0.029133719
5.596,0.029804975,0.033144023437499996,0.074349328,0.089267703,0.029133518
5.6,0.029806650390624998,0.033143219,0.074347078,0.08926593,0.029134658
5.604,0.029806047,0.033142379,0.0743445,0.089264148,0.029133818359374997
5.608,0.029805277,0.03314275,0.074344898,0.089263344,0.02913298
5.612,0.029804539,0.033142113281249996,0.074346273,0.089262172,0.029131506
5.616,0.029804438,0.033141242187499996,0.074346242,0.089260594,0.029130836
5.62,0.029804773437499998,0.033141242187499996,0.074344766,0.089259359,0.029131941
5.624,0.0298035,0.033140871093749996,0.074343695,0.089257344,0.029131203124999998
5.628,0.029803767578124998,0.033141172,0.074344836,0.089255836,0.029130767578124998
5.632,0.029804337890624998,0.033142145,0.074347047,0.08925493,0.029132109
5.636,0.029803632812499998,0.033142715,0.07434668,0.089253352,0.029129896484374997
5.64,0.029802224609374997,0.033142984,0.074344125,0.089251109,0.029130566
5.644,0.0298036,0.033143086,0.074342484,0.089249234,0.029131137
5.648,0.029803632812499998,0.033142918,0.074343758,0.089247992,0.029131137
5.652,0.029804941,0.033142816,0.074346008,0.089246617,0.029130533
5.656,0.029803632812499998,0.033142179687499995,0.074346914,0.08924507,0.029130398
5.66,0.029801320312499997,0.033141676,0.074346172,0.089243063,0.029131806640624997
5.664,0.029801320312499997,0.033141676,0.074345602,0.089241422,0.029131002
5.668,0.029802224609374997,0.033142313,0.074345672,0.08924018,0.029130266
5.672,0.029802092,0.033142179687499995,0.074346773,0.089239203,0.02912926
5.676,0.029802059,0.033141977,0.074347313,0.089237797,0.029130332031249997
5.68,0.029802662,0.03314134,0.0743445,0.089235953,0.029130365
5.684,0.029801287109374998,0.033141609,0.074341883,0.089233711,0.029129561
5.688,0.029800179687499997,0.033141309,0.074343758,0.089231766,0.029129896484374997
5.692,0.029800281249999998,0.033141441,0.07434668,0.089229984,0.029130734374999998
5.696,0.029802561,0.033141808593749995,0.07434725,0.089228414,0.029131572
5.7,0.029804304687499998,0.033142348,0.074344063,0.089226563,0.029131304687499998
5.704,0.0298036,0.033142852,0.074341852,0.089224992,0.029131674
5.708,0.029801521,0.033143117,0.07434332,0.089224391,0.029129761718749998
5.712,0.029801387,0.033143352,0.074345539,0.08922268,0.029127549
5.716,0.029800749999999997,0.033143488,0.074345336,0.089220602,0.029127381
5.72,0.029799812499999998,0.033142984,0.074343695,0.089218758,0.029128421874999998
5.724,0.029800918,0.033142246,0.074341711,0.089216406,0.029127984
5.728,0.029801555,0.033141844,0.074342219,0.089213391,0.029127851562499998
5.732,0.029801957,0.033141945,0.074344867,0.089211578,0.029128890624999997
5.736,0.029802125,0.033141477,0.074345,0.089210477,0.029129494
5.74,0.029801957,0.033140535,0.074342687,0.089209367,0.029129695
5.744,0.029800884765624997,0.033140066,0.074340742,0.089207023,0.029128254
5.748,0.029801185546874998,0.033140167968749995,0.074340742,0.089204203,0.029126845703124998
5.752,0.029800146484374998,0.033140336,0.074343156,0.089202258,0.029127783
5.756,0.029799041,0.033140199,0.074343992,0.08920082,0.029127014
5.76,0.029799140624999998,0.033139867,0.074342352,0.089199812,0.029127749999999997
5.764,0.029800047,0.033139999999999996,0.074341312,0.08919857,0.029128755859374997
5.768,0.029800248,0.033140101562499996,0.074342148,0.089197461,0.029129996
5.772,0.029799173828124997,0.033140035,0.074343523,0.089196758,0.0291305
5.776,0.029797967,0.033139965,0.074342719,0.089194984,0.029130767578124998
5.78,0.029797833984374997,0.033139832,0.074340305,0.089192938,0.029129326171874997
5.784,0.029797867,0.033139063,0.074338594,0.089190891,0.029127314453124997
5.788,0.029799140624999998,0.033137886718749995,0.074339773,0.089188414,0.029127416015624998
5.792,0.029799443,0.033138523,0.074341883,0.089186398,0.029127617
5.796,0.02979951,0.033139262,0.074342086,0.089184422,0.029128824
5.8,0.029800783,0.033138960937499996,0.074340477,0.089182578,0.02912926
5.804,0.029801018,0.033137387,0.074338359,0.089180367,0.029127918
5.808,0.02980008,0.033136078124999996,0.074338258,0.089177719,0.029125939
5.812,0.029802092,0.033136379,0.074338563,0.089175773,0.029123996
5.816,0.029803266,0.033136445,0.074338258,0.089174367,0.029123762
5.82,0.029801152343749998,0.033135574,0.074336516,0.089172422,0.029124766
5.824,0.029800851562499998,0.033135976562499996,0.074335078,0.089170406,0.029123861
5.828,0.029802125,0.033137082,0.074336789,0.089168828,0.029124465
5.832,0.029800716796874998,0.033137621,0.074339031,0.089167391,0.029125738281249997
5.836,0.029800951,0.033138492,0.074338898,0.089166219,0.029124465
5.84,0.029801890624999997,0.033138492,0.074336383,0.089164609,0.029124800781249998
5.844,0.029801722656249998,0.033138523,0.07433343,0.089162695,0.029124800781249998
5.848,0.029800414,0.033138960937499996,0.074335008,0.089161117,0.029123426
5.852,0.029799878906249997,0.033138992,0.074337359,0.089159609,0.029123158
5.856,0.029800113,0.033139395,0.074337758,0.089158406,0.029124063
5.86,0.029800749999999997,0.033139395,0.074335945,0.089156227,0.029124230468749998
5.864,0.029799845703124998,0.033139297,0.0743335,0.089153813,0.029124398437499997
5.868,0.029800215,0.033139395,0.074333195,0.089152469,0.029123392578124997
5.872,0.029798738281249997,0.033139128906249996,0.074335008,0.089151367,0.029122486
5.876,0.029796996,0.033139664,0.074335609,0.089150359,0.029124063
5.88,0.029797263671874998,0.033140133,0.074333266,0.089148516,0.029123627
5.884,0.029797732421874997,0.033140269531249995,0.074332195,0.089146875,0.029122789062499998
5.888,0.029797197,0.033140402,0.074333633,0.089146031,0.029123561
5.892,0.029798537,0.033140066,0.074336414,0.08914493,0.029124164
5.896,0.029797432,0.033140101562499996,0.074337156,0.089143352,0.029123762
5.9,0.029795754,0.033140301,0.074335711,0.089140531,0.029124230468749998
5.904,0.029797063,0.03314134,0.07433357,0.089138055,0.029123525
5.908,0.029797128906249998,0.033141977,0.074333164,0.089136477,0.029122186
5.912,0.029795754,0.033141645,0.074334141,0.089134898,0.029121380859374997
5.916,0.029796928,0.033141676,0.074333938,0.08913393,0.029120105468749997
5.92,0.029797498,0.033141309,0.074331352,0.089131914,0.029119167968749998
5.924,0.029797699218749998,0.033141004,0.074329641,0.089129406,0.029120141
5.928,0.029798839843749998,0.033140738,0.074330313,0.089126719,0.029121715
5.932,0.029798068,0.033140402,0.074332625,0.089125047,0.029123158
5.936,0.029798705078124998,0.033140703,0.074333266,0.089123938,0.029122453
5.94,0.029799308593749997,0.033141742187499997,0.07433082,0.089122398,0.029119301
5.944,0.029798471,0.033141977,0.074328773,0.08912082,0.029116015624999998
5.948,0.029796426,0.033141676,0.074329914,0.089119883,0.029115346
5.952,0.029793441,0.03314084,0.074332797,0.089119812,0.029118832
5.956,0.029794582,0.033140535,0.074333,0.089119281,0.029119369
5.96,0.029795018,0.033139832,0.074329977,0.089118305,0.029116150390624998
5.964,0.02979391,0.033139664,0.074328,0.089117,0.029115881
5.968,0.02979143,0.033138859374999996,0.074327703,0.089115086,0.029116183593749997
5.972,0.029790725,0.033138589843749996,0.074328133,0.089112844,0.029113836
5.976,0.029790391,0.033138727,0.074327328,0.089110359,0.029113601562499997
5.98,0.029790087890624997,0.033138559,0.074324648,0.089107844,0.029113199
5.984,0.029789686,0.03313943,0.074322336,0.089106234,0.029111154296874997
5.988,0.029789585937499998,0.033140367,0.074322969,0.089104594,0.029107836
5.992,0.029790424,0.033139965,0.07432475,0.089103188,0.029107968749999998
5.996,0.029788781,0.033139563,0.074323977,0.089101508,0.029109544921874998
6,0.029787977,0.033140269531249995,0.074322102,0.089099695,0.02911149
6.004,0.029788478515624998,0.033141375,0.074320188,0.089097891,0.029110148
6.008,0.029789217,0.033141242187499996,0.074320156,0.089095945,0.029108539062499997
6.012,0.029787205,0.033140672,0.074321195,0.089093961,0.029107634765624998
6.016,0.029785361,0.033140937499999995,0.074320758,0.08909182,0.029106091796874997
6.02,0.029786031249999997,0.033142011718749996,0.074318547,0.089090273,0.029105923828124998
6.024,0.029786132812499998,0.033142547,0.074317273,0.08908907,0.029108605
6.028,0.029786736328124997,0.033142684,0.074318242,0.089087625,0.029109779
6.032,0.029787541,0.033142113281249996,0.074320258,0.08908568,0.029110986328124998
6.036,0.029785059,0.033141742187499997,0.074320961,0.089083602,0.029110148
6.04,0.029784455078124997,0.033142414,0.074319688,0.089081797,0.029110416015624998
6.044,0.029786166015624997,0.033142648,0.074317336,0.089080016,0.029110383
6.048,0.029786466796874998,0.033142179687499995,0.074317977,0.089078203,0.029109980468749998
6.052,0.029785797,0.033142113281249996,0.074320859,0.089076023,0.029110652343749998
6.056,0.029785025390624997,0.03314275,0.074320961,0.089073617,0.02911092
6.06,0.029785193,0.033142211,0.074318781,0.089071164,0.029110148
6.064,0.0297861,0.033141676,0.074316836,0.089069156,0.029109277
6.068,0.0297864,0.033141742187499997,0.074317273,0.089067273,0.029110316
6.072,0.0297861,0.033141140624999996,0.07431875,0.089065633,0.029109143
6.076,0.029786266,0.033140937499999995,0.074319016,0.089064055,0.029107365234374998
6.08,0.029787138671874998,0.033140469,0.074316773,0.089062414,0.029106628906249998
6.084,0.029787574218749998,0.033139898437499996,0.07431382,0.089060336,0.029106461
6.088,0.029787373,0.033139563,0.074314555,0.089058422,0.029109209
6.092,0.029787943,0.03313943,0.074316164,0.089056984,0.029108203
6.096,0.029789553,0.033139063,0.074313984,0.08905507,0.029106461
6.1,0.029788916,0.03313866,0.074310703,0.089052789,0.029105689
6.104,0.029787708984374998,0.03313916,0.074308586,0.089050984,0.029104515624999997
6.108,0.029787708984374998,0.033139965,0.074309055,0.089049203,0.029103945312499997
6.112,0.029786601562499997,0.033140805,0.074311406,0.089047398,0.029103945312499997
6.116,0.029786301,0.033141074,0.074311711,0.089046023,0.029103275
6.12,0.029787205,0.033140301,0.074309727,0.089043906,0.029101933593749997
6.124,0.029787708984374998,0.033140101562499996,0.074307688,0.089041727,0.029101264
6.128,0.029786971,0.033139965,0.074309359,0.089040523,0.029102503906249997
6.132,0.029786466796874998,0.033139395,0.07431107,0.08903918,0.029102906249999998
6.136,0.029786535,0.033139328,0.074310867,0.089037938,0.029102605468749997
6.14,0.029787271,0.033139633,0.074308688,0.089035125,0.029101431640624998
6.144,0.029786736328124997,0.033139898437499996,0.074307922,0.089032711,0.029102773
6.148,0.029785629,0.033139395,0.074308391,0.089031398,0.029103576
6.152,0.029784019531249997,0.03313943,0.074310703,0.089029859,0.029102639
6.156,0.029784523,0.033140035,0.074310906,0.089027711,0.029103107
6.16,0.029785863281249998,0.033140738,0.074309023,0.089025,0.029104248
6.164,0.029786031249999997,0.03314084,0.074308219,0.089022719,0.029105052734374998
6.168,0.029785529,0.033140805,0.074308219,0.089020508,0.029105455
6.172,0.029784926,0.033140972656249996,0.074309094,0.089018859,0.029104449
6.176,0.029785730468749997,0.033141039062499995,0.074309297,0.089017219,0.029103374999999997
6.18,0.029786064,0.033140937499999995,0.07430718,0.089015781,0.029106025
6.184,0.029786568359374998,0.033140402,0.074305273,0.089014703,0.029107266
6.188,0.029785295,0.033140167968749995,0.074306945,0.0890135,0.029107467
6.192,0.029785025390624997,0.033140301,0.074308758,0.089012859,0.029106561
6.196,0.029786703124999998,0.033140637,0.074308352,0.089012156,0.029105353515624998
6.2,0.02978583,0.033139999999999996,0.074305875,0.089010383,0.029103074
6.204,0.029785059,0.033139395,0.074303695,0.089008734,0.029102537
6.208,0.029785193,0.033139195,0.074303094,0.089007195,0.029101867187499998
6.212,0.029784053,0.033140234,0.074305172,0.089005719,0.029102135
6.216,0.029784289,0.033141477,0.074306547,0.089004375,0.029103611328124997
6.22,0.029783416015624998,0.033141273,0.074304836,0.089002367,0.029103443359374998
6.224,0.029783583984374997,0.033140602,0.074301984,0.089000289,0.029103242
6.228,0.029781875,0.033139867,0.07430232,0.088998609,0.029102068
6.232,0.029781001953124997,0.033139363,0.074305234,0.088997406,0.029103107
6.236,0.029781505859374998,0.033139395,0.074305773,0.0889965,0.029105254
6.24,0.029782881,0.033139832,0.074302656,0.088994992,0.029105455
6.244,0.029782746,0.033139999999999996,0.074300641,0.08899325,0.029104885
6.248,0.029782713,0.033141074,0.074301078,0.088991406,0.029102236
6.252,0.029781773,0.033141777,0.074302687,0.088989797,0.029100996093749998
6.256,0.029781773,0.033142211,0.074303187,0.088988758,0.029101063
6.26,0.029781941406249998,0.033141742187499997,0.07430175,0.088987148,0.029101933593749997
6.264,0.029782914,0.033141977,0.074300242,0.088985336,0.029102203
6.268,0.029783851562499998,0.033142984,0.074301414,0.088984633,0.029102572265624998
6.272,0.029784087890624998,0.033143320312499995,0.074303023,0.088983555,0.029102404
6.276,0.029782611,0.03314275,0.074302758,0.088982922,0.029105085937499997
6.28,0.029782611,0.033142918,0.074300406,0.088982219,0.029104416
6.284,0.029782511718749998,0.033142816,0.074298836,0.088980977,0.029102605468749997
6.288,0.029781437499999997,0.033142379,0.07429957,0.088979805,0.029101264
6.292,0.029781103515624997,0.033142648,0.074301484,0.088978492,0.029100927734374997
6.296,0.029780833984374998,0.033142582,0.074301516,0.088976852,0.029101768
6.3,0.029780097656249997,0.033142246,0.074299203,0.088974945,0.02910418
6.304,0.029779293,0.033142011718749996,0.074297828,0.088973703,0.029107031
6.308,0.029779527343749997,0.033141844,0.074298125,0.08897293,0.029106527343749997
6.312,0.02977832,0.033141406,0.07430007,0.088971859,0.029104917968749998
6.316,0.029778287,0.033141808593749995,0.074300508,0.08897082,0.029104783203124998
6.32,0.02977775,0.033142078,0.074298734,0.088969008,0.029105957031249997
6.324,0.029777885,0.033142516,0.074296953,0.088967227,0.029106527343749997
6.328,0.029778689,0.033143050781249996,0.074298164,0.088965453,0.029104416
6.332,0.029779158,0.033143117,0.074299969,0.088963711,0.029103879
6.336,0.02977775,0.033143621,0.074300039,0.088962102,0.029103945312499997
6.34,0.029776879,0.033143656,0.074298125,0.088959922,0.029105422
6.344,0.029777449218749998,0.033143184,0.074296586,0.08895757,0.029105756
6.348,0.029777684,0.033142313,0.074297828,0.088955258,0.029103912109374998
6.352,0.029777684,0.033141977,0.07430118,0.088952844,0.029102807
6.356,0.02977718,0.033141977,0.07430175,0.088949961,0.029102773
6.36,0.029777013671874998,0.033142313,0.074298969,0.088946945,0.029102705
6.364,0.029777582,0.033142816,0.074297523,0.088944164,0.029103509765624997
6.368,0.029778353515624998,0.033143184,0.07429793,0.088941781,0.029103813
6.372,0.029778689,0.033143621,0.07429907,0.08893957,0.02910465
6.376,0.029777885,0.033143688,0.074299266,0.088937727,0.029102169921874997
6.38,0.029776846,0.033143453,0.074297625,0.088935914,0.029102705
6.384,0.029776879,0.033142414,0.074296086,0.088934477,0.029104215
6.388,0.02977557,0.033141574,0.074296617,0.088932164,0.029105186
6.392,0.029774197,0.033141508,0.074298633,0.088930148,0.029105422
6.396,0.029774162,0.033141207,0.074298195,0.088927063,0.029103543
6.4,0.029775135,0.033140367,0.074295477,0.08892368,0.029102068
6.404,0.029776678,0.03313943,0.074292766,0.088920961,0.029101398
6.408,0.029776341796874998,0.033138223,0.074291523,0.088918883,0.029101566406249998
6.412,0.029775102,0.033137820312499996,0.074294141,0.088917844,0.029103341796874998
6.416,0.02977641,0.033137886718749995,0.074295383,0.088916336,0.029103374999999997
6.42,0.029776341796874998,0.033138089843749996,0.074294039,0.088913148,0.029101666
6.424,0.029775605468749997,0.033137652,0.074293398,0.088910336,0.029104080078124997
6.428,0.029775168,0.033137453,0.074294539,0.088907719,0.029101699
