time,F8,F4,Fz,F3,F7
0,0.028155885,0.051535395,0.046009773,0.016379882,0.034369523
0.004,0.028155953124999997,0.051534789062499996,0.046015507812499995,0.016379043945312498,0.034370160156249996
0.008,0.028155683593749998,0.05153432,0.046014066,0.016379513,0.034370563
0.012,0.028155851562499997,0.051534723,0.04601098,0.016380149,0.034371199218749995
0.016,0.028156422,0.051534254,0.046005382812499995,0.016378708,0.034371066
0.02,0.028156891,0.051533316406249995,0.046007898,0.016378071,0.034370195
0.024,0.028157025,0.051533316406249995,0.046013328124999996,0.01637834,0.034370832
0.028,0.028157025,0.051533012,0.04601259,0.016378876,0.034373078
0.032,0.028156355468749998,0.051531402,0.046010109,0.016379781,0.034374152
0.036,0.028155182,0.051529226562499995,0.046006055,0.016379982421874998,0.034372844
0.04,0.028154611,0.051528187499999996,0.046009675781249995,0.016380116,0.034373312499999996
0.044,0.028154376953124997,0.051528824,0.046016480468749996,0.016381155,0.034375391
0.048,0.028154443,0.051530195,0.046015609374999995,0.016381927,0.03437727
0.052,0.028154746,0.05153023,0.04601182,0.016382329,0.034376363281249996
0.056,0.028154008,0.051528085937499996,0.046006055,0.016381558,0.03437509
0.06,0.028153539,0.051526843749999995,0.046009773,0.016381391,0.034377137
0.064,0.028154176,0.05152718,0.046016078,0.01638243,0.034378512
0.068,0.028154677734374998,0.05152698,0.046014738281249995,0.016382530273437498,0.034380453
0.072,0.028155014,0.051526945312499996,0.046010949,0.016381959960937498,0.034380188
0.076,0.028154846,0.051526207,0.04600525,0.016380787,0.034378176
0.08,0.028154713,0.051525133,0.046008566,0.016381089,0.03437784
0.084,0.028155014,0.051525035156249996,0.046014703,0.016381994140624998,0.03437841
0.088,0.028156086,0.051525301,0.046012961,0.016383569,0.034379515624999996
0.092,0.028156725,0.051524230468749994,0.046010246,0.016384273,0.03437918
0.096,0.028157259765624998,0.051522418,0.046004879,0.016383637,0.03437784
0.1,0.028156791,0.051521078124999994,0.046007328,0.016383234,0.034377371
0.104,0.028156925781249998,0.051521078124999994,0.046012523,0.016383167,0.034377871
0.108,0.028157629,0.051521445,0.046010883,0.016382095,0.034379047
0.112,0.02815716,0.051520707031249995,0.046007597656249996,0.016380753,0.034378008
0.116,0.028157025,0.051519301,0.046003371093749995,0.016379948242187498,0.034375055
0.12,0.028156857421874997,0.051517895,0.046006355468749996,0.016379546,0.034375492187499995
0.124,0.028157127,0.051518832031249996,0.046011922,0.016379211,0.0343765
0.128,0.028157964843749998,0.051519133,0.046010043,0.016378607,0.034378008
0.132,0.02815773,0.051518730468749996,0.046006624999999995,0.016378004,0.034378441
0.136,0.028157461,0.051517492,0.046002199,0.016377435,0.034377469
0.14,0.028157025,0.051515746093749995,0.04600602,0.016377602,0.034379852
0.144,0.028156523437499997,0.051516184,0.046012223,0.016378809,0.034383004
0.148,0.028157092,0.051517457,0.046011719,0.016379613,0.034384109
0.152,0.028158535156249997,0.051516988281249995,0.046008636718749996,0.016379379,0.034384242
0.156,0.028159037,0.051515078124999995,0.046003875,0.016377938,0.034382535
0.16,0.028159172,0.051514203,0.046006355468749996,0.016376831,0.034380891
0.164,0.028159473,0.051514707031249996,0.046011719,0.016376663,0.034380992
0.168,0.028160512,0.051515144531249994,0.046010714843749995,0.016376932,0.034382836
0.172,0.028160445312499997,0.051514437499999996,0.046007863,0.016377400390624998,0.034382566406249995
0.176,0.028159874999999997,0.051513066406249995,0.046002031,0.016376831,0.034381628906249996
0.18,0.02815934,0.051512191,0.046005184,0.01637663,0.034382296874999996
0.184,0.028159574218749997,0.051512125,0.046011585937499995,0.016377736,0.034383437499999996
0.188,0.028160814,0.051511722656249995,0.046009406249999996,0.01637834,0.034384578124999995
0.192,0.028160713,0.051510719,0.046005016,0.016377837,0.034383473
0.196,0.028159674,0.051509242,0.045999953,0.016375657,0.03438166
0.2,0.028159037,0.051508671874999995,0.046003539,0.016374986,0.034382332
0.204,0.028159541015624998,0.051508738,0.046009472656249994,0.016375791,0.034384512
0.208,0.028160781,0.051509777,0.04600773,0.016375825,0.034385820312499996
0.212,0.028161919921874997,0.051510414062499996,0.046003773,0.016375255,0.034385047
0.216,0.028161385,0.051509176,0.045997738,0.016373545,0.034384176
0.22,0.028162223,0.051508238,0.046000758,0.016372707,0.034383102
0.224,0.028163328124999998,0.05150827,0.046006055,0.016372337890624998,0.034382937499999995
0.228,0.028164402,0.051508707031249996,0.046005148,0.016372069,0.034384344
0.232,0.028163328124999998,0.05150884,0.046002230468749995,0.016371802,0.034384781249999996
0.236,0.028162289,0.051507129,0.045997437499999995,0.016371063,0.034385316
0.24,0.028163496093749997,0.051505824218749996,0.046000688,0.016371131,0.034386152
0.244,0.028164535,0.051506258,0.046007226562499996,0.016371734,0.034389273
0.248,0.028165574,0.051506828,0.046005652343749995,0.016371634,0.034391719
0.252,0.028165574,0.051506593749999996,0.046001594,0.016370829101562498,0.034390746
0.256,0.028164166,0.051505922,0.045997539062499995,0.016369555,0.034388367
0.26,0.028163631,0.051504414,0.046001863,0.016368951,0.034388938
0.264,0.028163529,0.051503477,0.046008133,0.016369755859374998,0.034392055
0.268,0.028163965,0.051504078,0.046006758,0.016370729,0.034392926
0.272,0.028163396,0.051504348,0.046003304687499996,0.0163715,0.034394738
0.276,0.02816316,0.051503742,0.045999179687499996,0.016369890624999998,0.03439484
0.28,0.028163361328124997,0.051504047,0.046003742187499995,0.016369119,0.034394402
0.284,0.028163563,0.051504918,0.046009238281249996,0.016369723,0.034394336
0.288,0.028163396,0.051505387,0.046007461,0.016369890624999998,0.03439484
0.292,0.028163965,0.051505086,0.046003875,0.016368516,0.034393262
0.296,0.028163799,0.051503477,0.045998477,0.016366604,0.034391117
0.3,0.028163361328124997,0.051503242,0.046001359374999995,0.016366102,0.034392624999999996
0.304,0.028163027343749997,0.051503542968749996,0.04600716,0.016366805664062498,0.034393898
0.308,0.028163597656249997,0.051503273,0.046006188,0.016367342773437498,0.034395172
0.312,0.028163631,0.051501898,0.046002836,0.016367308593749998,0.034397051
0.316,0.02816316,0.051500457031249995,0.045997941,0.016366102,0.034398426
0.32,0.02816316,0.051499687499999995,0.046001125,0.016365867,0.034398895
0.324,0.028163563,0.051500691,0.046006289,0.016366705,0.034399765624999995
0.328,0.028164637,0.051501027,0.046005148,0.016367878906249998,0.034400773
0.332,0.028164871,0.051499754,0.046001895,0.016367275390624998,0.034399968749999996
0.336,0.028165039062499998,0.051498378906249996,0.045996566406249995,0.016365833984374998,0.034398156
0.34,0.028164971,0.05149818,0.046000285,0.016364459,0.034398293
0.344,0.028165139,0.051498781,0.046005617,0.01636342,0.034398023
0.348,0.028165474609374998,0.051499484374999994,0.046004043,0.016362782,0.034397922
0.352,0.028165507812499997,0.051499184,0.046000285,0.016362782,0.034396714843749995
0.356,0.028165273,0.051498781,0.04599566,0.016361877,0.034395609
0.36,0.028165574,0.051497977,0.045998914,0.016361172851562498,0.03439591
0.364,0.028166480468749998,0.051498348,0.046004711,0.016361341,0.034396211
0.368,0.028167252,0.051498480468749996,0.046003004,0.016360637,0.034397117
0.372,0.028167384765624998,0.051497309,0.045999382812499996,0.016360101,0.034398492
0.376,0.028167219,0.051496433593749995,0.045993852,0.016359296,0.034396984
0.38,0.028167050781249998,0.051495832,0.045997504,0.016358894,0.034397585937499996
0.384,0.028167654296874997,0.051496102,0.046002031,0.016358894,0.034399597656249996
0.388,0.028168123,0.05149516,0.046000824,0.016359229,0.034401945
0.392,0.028168258,0.05149402,0.045998410156249996,0.016358927,0.034401878906249996
0.396,0.028168559,0.051493117,0.045993211,0.016357653,0.034399832
0.4,0.028168492187499998,0.051492949,0.045996531,0.01635772,0.034398929687499996
0.404,0.028168224609374997,0.05149325,0.046001695,0.016358624999999998,0.034398762
0.408,0.028168023,0.05149298,0.045999918,0.016358558,0.034402215
0.412,0.028168693,0.051492379,0.045996531,0.016357753906249998,0.034402582
0.416,0.028168426,0.051491472656249995,0.045992105468749996,0.016356312,0.034401645
0.42,0.028167955078124998,0.051491238,0.045995191,0.016356211,0.034401777343749995
0.424,0.028167519531249997,0.051492175781249996,0.046001191406249996,0.016357217,0.034404328
0.428,0.028167855,0.051493082,0.046001089843749995,0.016358994,0.034406406
0.432,0.028168426,0.051493047,0.045997707,0.016358826,0.034405332
0.436,0.028167955078124998,0.051491742187499995,0.045992574,0.016357619140624998,0.034403387
0.44,0.028167754,0.051490801,0.04599566,0.016357418,0.034403656
0.444,0.028167654296874997,0.051490938,0.046000421874999996,0.016358223,0.034404629
0.448,0.02816742,0.051490734,0.045998273,0.016358021,0.034406070312499995
0.452,0.02816742,0.051489762,0.045994320312499996,0.016357753906249998,0.034406574
0.456,0.028167285,0.051487418,0.045989727,0.016356379,0.034404629
0.46,0.028166313,0.051485203,0.045994051,0.016356849,0.034404761718749996
0.464,0.028166145,0.051484499999999996,0.045998375,0.016357418,0.034406671874999996
0.468,0.028166648437499997,0.051483527343749995,0.045995594,0.016357016,0.034407512
0.472,0.028165877,0.051481918,0.045992406,0.016356513,0.034406238
0.476,0.028164769531249998,0.051479805,0.045987414062499996,0.016355541,0.034405465
0.48,0.028164166,0.051478496,0.045991035,0.016354702,0.034406305
0.484,0.028163898437499998,0.051478566406249995,0.045996063,0.016354668945312498,0.034405535
0.488,0.028162357,0.051478063,0.045993582,0.016354803,0.034406504
0.492,0.028160512,0.051476183593749995,0.045990129,0.0163544,0.03440875
0.496,0.028160580078124997,0.051473871,0.045985031249999996,0.016352222,0.034407141
0.5,0.028160479,0.051472563,0.045988351562499995,0.016350477539062498,0.034406336
0.504,0.028160310546874998,0.051472227,0.04599234,0.01635021,0.034406574
0.508,0.02816068,0.051471558593749994,0.045989758,0.016350746,0.034407781
0.512,0.028160781,0.051470117,0.045985836,0.016350243,0.034407176
0.516,0.028160145,0.051468507812499995,0.045980977,0.016349572,0.034405164
0.52,0.028159304687499997,0.051467097656249995,0.045984195,0.016349673,0.034403890624999996
0.524,0.028159574218749997,0.05146673,0.045988586,0.016350009,0.034402953124999996
0.528,0.028159574218749997,0.051466160156249996,0.045986070312499995,0.016349606445312498,0.034404563
0.532,0.028159607,0.051465055,0.045982719,0.016348131,0.034404461
0.536,0.028159809,0.051463242,0.045977019531249996,0.016346287,0.034403722656249996
0.54,0.028158937499999998,0.051462168,0.04598141,0.016345817,0.034405132812499996
0.544,0.028158869140624997,0.051462371,0.04598691,0.01634679,0.034406336
0.548,0.028159674,0.051461164062499995,0.045985469,0.016347527343749998,0.034407309
0.552,0.028159104,0.051459453,0.045981914,0.016346924,0.034406406
0.556,0.028157764,0.051457441,0.045977488,0.016345583,0.0344055
0.56,0.028157292968749997,0.051456137,0.045981578,0.016345616,0.034406070312499995
0.564,0.028157695312499998,0.051456203124999995,0.045986003906249996,0.016345952,0.03440577
0.568,0.02815877,0.051456301,0.045983890624999996,0.016346555664062498,0.034405031249999996
0.572,0.028158970703124998,0.051454792968749996,0.045980406,0.016345349,0.034405465
0.576,0.028157662,0.051452648,0.045975675781249996,0.016343571,0.034405297
0.58,0.028157259765624998,0.051451945,0.045978594,0.016342767,0.034404258
0.584,0.028157394531249998,0.051452679687499996,0.045981980468749996,0.016343001,0.034405132812499996
0.588,0.028157695312499998,0.05145275,0.045979434,0.016343035156249998,0.034406438
0.592,0.028157025,0.051450906,0.045976414,0.016343169,0.034405734
0.596,0.028156455,0.051448457,0.045972023437499995,0.016341492,0.034404059
0.6,0.028155719,0.051447754,0.045975711,0.016340888671874998,0.034405063
0.604,0.028155281249999997,0.051447148,0.045980977,0.016341358,0.034407379
0.608,0.028156287109374997,0.051445874999999995,0.045979031249999996,0.016341794,0.034409656
0.612,0.028156455,0.051445238,0.045975375,0.016340888671874998,0.03440798
0.616,0.028155449,0.051443328,0.045970582,0.016339581,0.034405566
0.62,0.028154511718749997,0.051441984,0.045973765624999996,0.016339782,0.034408015624999996
0.624,0.028154677734374998,0.051441551,0.04597866,0.016339983,0.034408652
0.628,0.028154311,0.051440777,0.045977355468749995,0.016340554,0.034409188
0.632,0.028153505859374997,0.051440344,0.04597484,0.01634109,0.03440902
0.636,0.028153068,0.051439503906249996,0.045970648,0.016339615,0.034408683593749996
0.64,0.028153337890624998,0.051438434,0.045972726562499996,0.016338978,0.034409188
0.644,0.02815374,0.0514385,0.045976281,0.016338844,0.034410761718749995
0.648,0.028154846,0.051438766,0.045974605,0.016338475,0.034411066406249996
0.652,0.028155014,0.051437996,0.045971688,0.01633824,0.034408516
0.656,0.028153941406249997,0.051435414,0.045968066,0.016336933,0.0344055
0.66,0.02815374,0.051433168,0.04597132,0.016335491,0.034404125
0.664,0.028153438,0.051433035,0.045975777343749996,0.016335559,0.034407477
0.668,0.028153337890624998,0.051433336,0.045975375,0.016336631,0.034409355
0.672,0.028153707,0.051432832,0.045972559,0.016336698,0.034409086
0.676,0.028153806640624997,0.051430117,0.045968101562499995,0.016334485,0.034407746
0.68,0.028153908203124998,0.051429445312499995,0.045970984374999996,0.016333178,0.03440798
0.684,0.02815374,0.05142918,0.045975878906249996,0.016333211,0.034409054687499996
0.688,0.028153639,0.051427871,0.045974773,0.016332943359374998,0.034409925781249996
0.692,0.02815317,0.051425894531249995,0.045971586,0.016332875976562498,0.03440882
0.696,0.028152432,0.051424550781249995,0.045967465,0.016331802734374998,0.034408015624999996
0.7,0.028152064,0.051425355468749996,0.04597152,0.016331736,0.034409625
0.704,0.028151929687499997,0.051427168,0.045976648437499996,0.016332775,0.03440959
0.708,0.028151626953124998,0.05142777,0.04597484,0.016332943359374998,0.034412003906249995
0.712,0.028151224609374997,0.051426832031249994,0.045971352,0.016332172,0.034413043
0.716,0.028151125,0.051424921874999995,0.045967195,0.016331468,0.034412137
0.72,0.028151393,0.051424285,0.045970684,0.016331099,0.034411871
0.724,0.02815126,0.051423813,0.045975746,0.016332172,0.034412773437499995
0.728,0.028151158,0.051423008,0.045973867187499996,0.016332507,0.034413816
0.732,0.028151059,0.051421433593749996,0.045970211,0.01633177,0.034414218749999996
0.736,0.028150387,0.051418718749999995,0.04596525,0.016330495,0.034413109
0.74,0.028151092,0.051417511718749996,0.045969004,0.016329121,0.034413512
0.744,0.028151494,0.051417043,0.045974168,0.01632892,0.034414886718749996
0.748,0.028152566,0.051416137,0.045971957031249996,0.016329355,0.034414218749999996
0.752,0.028152969,0.051414796874999995,0.045967465,0.016328216,0.034412874999999996
0.756,0.028152197265624998,0.051412816,0.045962602,0.016326036,0.034411871
0.76,0.028152164,0.05141248,0.045966960937499995,0.016324997,0.034411164
0.764,0.028152734,0.051413188,0.045970246,0.016324292968749998,0.034411668
0.768,0.028152365234374997,0.051412785156249995,0.045966625,0.016323219726562498,0.034413012
0.772,0.028151594,0.051411176,0.045963371,0.016322616210937498,0.034414855
0.776,0.028150387,0.051409195312499996,0.045960156249999995,0.016322180664062498,0.034414184
0.78,0.028149851562499998,0.051409164,0.045964882812499996,0.016322516,0.034415055
0.784,0.028148811,0.051409261718749995,0.045970113281249995,0.016323823,0.034417769531249996
0.788,0.028148173828124998,0.05140923,0.045969004,0.016324829,0.034419313
0.792,0.028148041,0.051408761718749994,0.045963976562499995,0.016323756835937498,0.034418808593749996
0.796,0.028147537,0.051407484,0.045958711,0.016322248046874998,0.034416531
0.8,0.028148140624999998,0.051406582031249995,0.045962402,0.016322180664062498,0.034417031
0.804,0.02814908,0.051405676,0.045967531,0.016323388,0.034418910156249996
0.808,0.028149281249999998,0.051404468749999994,0.045965621,0.016324024,0.034419816
0.812,0.028148979,0.051402390624999995,0.045962133,0.016324092,0.034418574
0.816,0.028147805,0.051400546874999994,0.045958008,0.016322616210937498,0.03441757
0.82,0.028147402,0.051399707,0.045962133,0.016321645,0.034417133
0.824,0.028147537,0.051399273,0.045967328,0.016321409,0.034417871
0.828,0.028147201171874997,0.051399070312499996,0.045965484,0.016321275,0.034418977
0.832,0.028147134765624998,0.051398434,0.045962266,0.016320873,0.034417738
0.836,0.028145426,0.051396789062499997,0.045958746093749996,0.016319633,0.034416796874999996
0.84,0.028144822265624998,0.051396387,0.045963640624999996,0.016320202,0.034417535
0.844,0.028145726562499997,0.051397262,0.04596884,0.016321544,0.034418808593749996
0.848,0.028147035,0.051397124999999995,0.045967395,0.016321812,0.034419918
0.852,0.028146799,0.051396789062499997,0.045964445,0.016321309,0.034419414
0.856,0.02814623,0.051395852,0.045960188,0.016319733398437498,0.034417066406249995
0.86,0.028146498,0.051395684,0.045964043,0.016318895,0.034415793
0.864,0.028147102,0.051396624999999994,0.04596884,0.016319532,0.034416128906249996
0.868,0.028147134765624998,0.051396656,0.045966792968749996,0.016319565,0.034417937499999995
0.872,0.028146666,0.051396121,0.045963406,0.016318828,0.034418910156249996
0.876,0.028145994,0.051395082,0.045959515624999996,0.016317688,0.034417602
0.88,0.028145459,0.051395382812499994,0.045964043,0.016317252,0.034416395
0.884,0.028145459,0.051395917968749996,0.045969543,0.016318325,0.034418172
0.888,0.028145525,0.051396289062499996,0.045968703124999996,0.016319432,0.034421089843749995
0.892,0.028145459,0.051395953,0.045965921874999996,0.016319935,0.034421223
0.896,0.028144955,0.051394242187499994,0.04596143,0.016318693,0.034419613
0.9,0.028144720703124997,0.051394043,0.045965484,0.016318660156249998,0.034419648
0.904,0.028144787,0.051394512,0.045970984374999996,0.016320202,0.034422062499999996
0.908,0.028144687499999998,0.051394074218749995,0.045969676,0.016321007,0.034423371093749995
0.912,0.028144385,0.051393672,0.045966559,0.016321007,0.034422566
0.916,0.028143447,0.051392933593749995,0.045962973,0.016321007,0.034421762
0.92,0.028143514,0.051393336,0.045967465,0.016321912,0.034422999999999995
0.924,0.028144585937499998,0.051394007812499996,0.045971453,0.016321879,0.03442357
0.928,0.028144621,0.051393738,0.045969910156249995,0.016321242187499998,0.034424140624999995
0.932,0.028144654,0.051392699,0.045966625,0.016320604492187498,0.034422933593749996
0.936,0.02814442,0.051390656,0.045962301,0.0163199,0.034422062499999996
0.94,0.02814385,0.051390488,0.04596743,0.016320639,0.034424039
0.944,0.02814385,0.051391258,0.045972762,0.016320974,0.034425078
0.948,0.028143714843749997,0.051392230468749994,0.045971488,0.016320974,0.034426085937499996
0.952,0.028143111328124998,0.051391089843749994,0.045968738,0.016320772,0.034426621
0.956,0.028142541015624998,0.05138898,0.045963473,0.016319331,0.034426285
0.96,0.028142976562499998,0.051388609,0.045967128906249995,0.016318325,0.034426688
0.964,0.028144552734374998,0.051388308593749994,0.045970714843749996,0.016318057,0.034426855468749996
0.968,0.028144889,0.051387539,0.045967664,0.016317353,0.034426957
0.972,0.028143816406249998,0.051387941,0.045964613,0.016316548,0.034426422
0.976,0.028143111328124998,0.051387167968749994,0.045960523,0.016315944,0.034426051
0.98,0.028143212890624998,0.051385895,0.045963808593749995,0.016316246,0.034427426
0.984,0.028143883,0.051385691406249996,0.045968234,0.016316078124999998,0.034428969
0.988,0.02814385,0.051385223,0.045966457,0.016316648437499998,0.034429438
0.992,0.028143111328124998,0.051384855,0.045963875,0.016317285,0.034429172
0.996,0.028142541015624998,0.051382910156249996,0.045959683593749995,0.016316279,0.034429473
1,0.028142508,0.051382640624999996,0.045964043,0.016315743,0.03442927
1.004,0.028141904,0.05138234,0.04596884,0.016316313,0.034432152
1.008,0.028141636718749998,0.051381835937499995,0.045967867,0.016317083984374998,0.034434836
1.012,0.028141736,0.051380766,0.045964816,0.016317252,0.034434468749999995
1.016,0.028141502,0.051379422,0.045960891,0.016316983,0.034434668
1.02,0.028141334,0.051378855,0.045964882812499996,0.016315944,0.034434836
1.024,0.028141703124999997,0.05137902,0.045969441,0.016316279,0.034434402
1.028,0.028141871,0.051379391,0.045967832031249996,0.01631685,0.034434703
1.032,0.028140697,0.051379089843749996,0.045964211,0.016315911,0.034434234
1.036,0.028140027,0.051378316,0.045959852,0.016314134,0.034432824
1.04,0.028140765624999998,0.051377812499999995,0.045963808593749995,0.016313263,0.034432891
1.044,0.028141904,0.051377344,0.045967965,0.016312726,0.034432457031249995
1.048,0.028142675781249998,0.05137748,0.045966289,0.016312692,0.034434
1.052,0.028141904,0.051376003906249995,0.045962805,0.016312391,0.034435473
1.056,0.028140396,0.051374563,0.045958847656249996,0.016311452,0.034435507812499995
1.06,0.028140765624999998,0.051374359,0.045964078124999995,0.016311385,0.034436414
1.064,0.028141334,0.051375066406249996,0.045968738,0.01631172,0.034436578
1.068,0.028141938,0.051374996,0.045966258,0.01631182,0.034437016
1.072,0.028142105468749998,0.051374359,0.04596193,0.016311217,0.034436648
1.076,0.028140932,0.051373625,0.045957574,0.016310043945312498,0.034435641
1.08,0.028140798828124997,0.051372984,0.045962031,0.016309876,0.034435809
1.084,0.028141604,0.051372348,0.045965785,0.01631011,0.034436078
1.088,0.028143012,0.051371379,0.045964011718749996,0.016310145,0.034435977
1.092,0.028142508,0.051370336,0.045960523,0.016308837,0.034434968749999996
1.096,0.028141301,0.051369836,0.045955996,0.01630716,0.034433461
1.1,0.028141469,0.051369867187499994,0.045960793,0.01630716,0.034433461
1.104,0.028141168,0.051371109374999994,0.045966457,0.016308636,0.034435676
1.108,0.028141502,0.051371309,0.045964715,0.016308903,0.034437351562499996
1.112,0.02814043,0.0513695,0.045961863,0.016308467773437498,0.034438258
1.116,0.02813815,0.051367656,0.04596002,0.016308903,0.034438559
1.12,0.028138048828124998,0.051367855,0.045964746093749995,0.016309473632812498,0.034438660156249995
1.124,0.028140529296874998,0.051367117,0.045965785,0.016308199,0.034438727
1.128,0.028141771484374998,0.051366383,0.045961395,0.016306423,0.034437453124999996
1.132,0.028141469,0.05136541,0.045956668,0.016304881,0.034433898
1.136,0.028142207031249998,0.051363164,0.045950566,0.016302231,0.03442927
1.14,0.028143414,0.051361753906249995,0.045952644531249996,0.016299349,0.034425617
1.144,0.028143012,0.051361085937499995,0.045955492187499995,0.016297705,0.034423906
1.148,0.028143379,0.051360313,0.045951805,0.016296465,0.034422902
1.152,0.028143748,0.051359406249999996,0.045947582031249996,0.016294889,0.034421828
1.156,0.02814348,0.051356859,0.045942117,0.016292743164062498,0.034419715
1.16,0.028142708984374997,0.051355215,0.045946242,0.016292207,0.034419043
1.164,0.028142775,0.051355117,0.045951371,0.016292677,0.034419582
1.168,0.028143045,0.051354746,0.045949191,0.016292777,0.034420820312499996
1.172,0.028142609,0.051352938,0.045944699218749996,0.016290967,0.034420387
1.176,0.028141838,0.051351863,0.045940207,0.016288619,0.034417738
1.18,0.028142105468749998,0.051351628906249995,0.045944797,0.016287748046874998,0.034415559
1.184,0.028142844,0.051351527343749995,0.045949695,0.016287915,0.034416328
1.188,0.028143379,0.051350992,0.045947348,0.016289156,0.034417301
1.192,0.028142943,0.051349418,0.045944063,0.016289323,0.034417367
1.196,0.028142006,0.05134707,0.045939836,0.01628815,0.034416531
1.2,0.028141938,0.051346667968749996,0.04594473,0.016288352,0.034417301
1.204,0.028142609,0.051346434,0.045949625,0.016289826,0.034417167968749995
1.208,0.02814291,0.051345257812499996,0.045948051,0.016290967,0.034418207
1.212,0.028142441,0.051344051,0.045944832,0.016291134,0.034418074
1.216,0.028142072,0.051342945,0.045941546874999996,0.016290396,0.034417066406249995
1.22,0.028142273,0.051342441406249995,0.045946207,0.016290329,0.03441834
1.224,0.028142675781249998,0.051342879,0.045950332,0.016291134,0.03441975
1.228,0.028143178,0.051342777,0.045949390624999996,0.016292207,0.034421223
1.232,0.028142675781249998,0.051341941,0.045946105,0.01629214,0.034421191406249996
1.236,0.028141669921874998,0.051341035,0.04594168,0.016291101,0.034421055
1.24,0.028141369140624997,0.051340496,0.045946742,0.016291872070312498,0.034423203124999996
1.244,0.028142307,0.051340363281249995,0.045951473,0.016293079,0.034424343749999996
1.248,0.028142877,0.051339324218749996,0.045948789062499995,0.016293246093749998,0.034425281
1.252,0.028141938,0.051337210937499995,0.045945102,0.01629318,0.034426789
1.256,0.028141636718749998,0.051334766,0.045940304687499996,0.016292911,0.034425281
1.26,0.028142105468749998,0.051333926,0.045944394531249995,0.016292911,0.034424843749999996
1.264,0.028142943,0.051334027,0.045949293,0.016293012,0.034425449
1.268,0.028143781,0.051333187499999995,0.045947145,0.016292979,0.034426085937499996
1.272,0.028143144531249997,0.051331445312499994,0.045944297,0.016292979,0.034427359
1.276,0.028142475,0.051330238281249996,0.045941313,0.016292341,0.034428129
1.28,0.028142441,0.051330304687499995,0.045945336,0.016292341,0.034428367187499996
1.284,0.028142574218749997,0.051331313,0.045950465,0.016292979,0.034428129
1.288,0.028143246093749998,0.051330441406249996,0.045949527,0.016293984,0.0344285
1.292,0.028143111328124998,0.051328695,0.045946742,0.016293683,0.034428367187499996
1.296,0.028142475,0.051327391,0.045941914,0.016292341,0.034426758
1.3,0.028141970703124998,0.051327223,0.045946742,0.016292274,0.034426926
1.304,0.028142240234374997,0.051328195,0.045951570312499995,0.016293112,0.034427797
1.308,0.028142976562499998,0.051327758,0.045949660156249995,0.016292979,0.034428199
1.312,0.02814234,0.051326382812499995,0.045945839843749996,0.016293045,0.03442793
1.316,0.028142105468749998,0.051325511718749994,0.045941714843749995,0.016292509,0.034425918
1.32,0.028141736,0.051326214843749995,0.045946375,0.016292207,0.034425918
1.324,0.028142675781249998,0.051327555,0.045950902343749996,0.016292844,0.034427527
1.328,0.028143111328124998,0.051328226562499996,0.045949660156249995,0.016293414,0.034427695
1.332,0.028142775,0.05132816,0.045946710937499996,0.01629318,0.034427828
1.336,0.028142508,0.051326417968749996,0.045942285,0.01629147,0.034427258
1.34,0.028143012,0.051324875,0.045946878906249995,0.016291335,0.034428531
1.344,0.028143514,0.051324875,0.04595127,0.016292677,0.034429707
1.348,0.028143615,0.051323734,0.0459505,0.016293883789062498,0.034432152
1.352,0.028143447,0.051322828,0.045948285,0.01629442,0.034433226562499995
1.356,0.028143681640624998,0.051322727,0.045945671874999996,0.016294621,0.034433898
1.36,0.028144552734374998,0.051322562499999995,0.045949996,0.016294822265624998,0.034433762
1.364,0.028143816406249998,0.051321387,0.045952879,0.016294186,0.034432992
1.368,0.028143883,0.051320918,0.045951473,0.01629519,0.034434602
1.372,0.028144585937499998,0.051320414,0.045947012,0.016294621,0.034434637
1.376,0.028144585937499998,0.051317801,0.045942855468749995,0.016292979,0.034432121
1.38,0.028144720703124997,0.051316828,0.045947781,0.016292476,0.034433461
1.384,0.028145189,0.051317296874999994,0.045952207,0.016292777,0.034436312499999996
1.388,0.028145961,0.05131857,0.045950465,0.016293648,0.034437785
1.392,0.028146263671874998,0.051318637,0.045946945,0.016293683,0.034437988
1.396,0.028145627,0.051316895,0.045942148,0.016292073,0.034436312499999996
1.4,0.02814566,0.051316156249999995,0.045946105,0.01629157,0.034436145
1.404,0.028145928,0.051315957,0.045950297,0.016291938,0.034438188
1.408,0.028145693359374998,0.051315891,0.045948488,0.016292207,0.034439563
1.412,0.028145895,0.05131525,0.045945168,0.016291604,0.034438258
1.416,0.028145558593749998,0.051313374999999994,0.045941012,0.01628976,0.034435977
1.42,0.028145357,0.051312031,0.045945102,0.016289961,0.034436414
1.424,0.028145961,0.051311598,0.045948555,0.01628976,0.034437519531249995
1.428,0.028146799,0.051311262,0.045945570312499996,0.016288687,0.034437219
1.432,0.028146564453124998,0.051309988281249996,0.045940941,0.016287479,0.034435004
1.436,0.028146666,0.051308914062499995,0.045936382812499996,0.016285837,0.034433797
1.44,0.028146732421874997,0.051307441406249994,0.045939734,0.016284797,0.034432793
1.444,0.028146633,0.051306098,0.045942484374999995,0.016284730468749998,0.034432457031249995
1.448,0.028145828124999998,0.051304925781249996,0.045939902,0.016284563,0.034432625
1.452,0.028144621,0.051303016,0.045936214843749996,0.016283456,0.034431852
1.456,0.028143414,0.051300699218749996,0.045931789,0.016281512,0.034430879
1.46,0.028143379,0.051298890624999996,0.045935645,0.016280237,0.034430645
1.464,0.028142943,0.051298758,0.045939332031249995,0.016280170898437498,0.034430879
1.468,0.028143144531249997,0.051297883,0.045937055,0.016280405,0.034432055
1.472,0.028142541015624998,0.051295738281249996,0.045932227,0.016279734,0.034431684
1.476,0.028141970703124998,0.05129252,0.045927266,0.016277991,0.034429203
1.48,0.028141334,0.051290238,0.045930816,0.016277119,0.034429035156249996
1.484,0.028141502,0.051289601562499995,0.045934773,0.016277891,0.034430109
1.488,0.028141771484374998,0.051289672,0.045933031,0.016277958,0.034432625
1.492,0.028140832,0.051288328,0.045929441,0.016277757,0.034432254
1.496,0.028139322,0.051287223,0.045925218749999996,0.016277254,0.034430879
1.5,0.028138854,0.051286285,0.045929914,0.016277187,0.034432085937499995
1.504,0.028139021,0.051286352,0.04593484,0.016277924,0.034434234
1.508,0.028140328,0.051286117,0.045933266,0.01627836,0.034435004
1.512,0.028140529296874998,0.051284843749999996,0.045929109,0.01627826,0.034435136718749995
1.516,0.028139961,0.051283199,0.045924449218749996,0.016277119,0.034434332
1.52,0.028140765624999998,0.051281824,0.045928102,0.016277053,0.034432723
1.524,0.028141168,0.051281121,0.045932628906249995,0.016277556,0.034432625
1.528,0.028140898,0.051281757812499995,0.045931723,0.016277187,0.034432289062499996
1.532,0.028139961,0.051281055,0.045927734,0.016276583007812498,0.034433058593749996
1.536,0.028138283,0.051278641,0.045921664,0.016275107,0.034434637
1.54,0.028137277,0.051277434,0.045925386718749996,0.016275509765624998,0.034436176
1.544,0.028136908203124998,0.051277296874999996,0.045930582,0.016276449,0.034436746
1.548,0.028136640624999997,0.051276258,0.045929109,0.016276952,0.034438660156249995
1.552,0.028135466796874998,0.051273914062499995,0.045925285156249995,0.016277588867187498,0.034439563
1.556,0.028134395,0.051271734374999996,0.045921063,0.01627732,0.034437652
1.56,0.028134460937499998,0.051270929687499994,0.045925117187499996,0.016277119,0.034437519531249995
1.564,0.028134695,0.051270558593749994,0.045928137,0.016277153320312498,0.034438258
1.568,0.028133992187499998,0.051270055,0.045926222656249995,0.016277085937499998,0.034439934
1.572,0.028132718749999997,0.051269285,0.045923742,0.016277119,0.034440336
1.576,0.028131410156249998,0.051268210937499996,0.045920289,0.016276181,0.034439867
1.58,0.028131109374999998,0.051268613,0.045924582,0.016275846,0.034439898
1.584,0.028132047,0.051268480468749995,0.045928605468749995,0.016275946,0.034440805
1.588,0.028132986328124998,0.051268648437499995,0.045926391,0.016275846,0.034441609
1.592,0.028133389,0.051267676,0.045922469,0.01627484,0.03444027
1.596,0.028133053,0.051265664,0.045918277,0.016272896,0.034438222656249996
1.6,0.028133188,0.051263953,0.045922469,0.016272393,0.034438992187499996
1.604,0.028133959,0.051263519531249996,0.045926594,0.016272828,0.034440503906249996
1.608,0.028134126953124998,0.051263754,0.045924984,0.016273163,0.034442547
1.612,0.028134058593749997,0.051262848,0.045921632812499995,0.016273163,0.034443723
1.616,0.028133455078124998,0.051260332031249994,0.045917844,0.016271151,0.034442613
1.62,0.028133758,0.051258891,0.045922637,0.016270381,0.034442348
1.624,0.028134025390624998,0.051258121,0.045926324218749995,0.016270381,0.034442379
1.628,0.028133758,0.051257281249999995,0.04592391,0.016269979,0.034443086
1.632,0.028133455078124998,0.051256008,0.045920054687499996,0.016269542,0.034442883
1.636,0.028132953,0.051254098,0.045915664,0.016268369,0.034442816
1.64,0.028132986328124998,0.051253023437499996,0.045919719,0.016267967,0.034442348
1.644,0.028133523,0.051253125,0.045924515624999995,0.016268671,0.034442613
1.648,0.028133926,0.051252992,0.045923171874999995,0.016270313,0.034443688
1.652,0.028134058593749997,0.051251617,0.045919551,0.01627028,0.034444222656249995
1.656,0.028133556640624998,0.051250176,0.045916031249999996,0.016269643,0.034443183593749996
1.66,0.028132818,0.051249066406249995,0.04592173,0.01626971,0.034444425781249996
1.664,0.028132718749999997,0.051248633,0.04592693,0.016270313,0.03444543
1.668,0.028132785,0.051248164,0.045925386718749996,0.016270984,0.034447039
1.672,0.028132785,0.05124682,0.045920859,0.01627028,0.034445867
1.676,0.028131311,0.05124575,0.045916234,0.016268335,0.03444352
1.68,0.028131443359374998,0.051246183593749994,0.045921766,0.016267799,0.034443219
1.684,0.028132148437499997,0.05124652,0.045926996,0.016268369,0.034443351562499995
1.688,0.028132718749999997,0.051246555,0.045925386718749996,0.016268973,0.034443723
1.692,0.028132449218749998,0.051245883,0.045922300781249994,0.016268838,0.034443621
1.696,0.028132449218749998,0.051244676,0.045918246,0.016268033,0.034443723
1.7,0.028133355,0.051244742,0.045923406,0.016267396,0.034444961
1.704,0.028133857,0.051244976562499996,0.04592743,0.016267363,0.034446305
1.708,0.028133791,0.051244172,0.045924078,0.016267162,0.034446906
1.712,0.02813292,0.051242395,0.045920023,0.016266391,0.034445969
1.716,0.028132550781249998,0.051240785156249996,0.045917004,0.016264748,0.034445332
1.72,0.028132383,0.051240285156249996,0.045922535,0.016264346,0.034445098
1.724,0.028132115234374998,0.051240453124999995,0.045926425781249995,0.016265217,0.034445902
1.728,0.028132617,0.051240453124999995,0.045923711,0.016265352,0.034446973
1.732,0.028132449218749998,0.051239042968749995,0.045918949,0.01626505,0.034446871
1.736,0.028131947,0.051237434,0.045913917968749995,0.016263675,0.034445832
1.74,0.02813208,0.051236664,0.045918512,0.016263205,0.034444559
1.744,0.028132316,0.051237066,0.045922035,0.01626277,0.03444523
1.748,0.028133154296874997,0.05123673,0.045919484,0.016261529,0.034445734374999995
1.752,0.028133656,0.051235691,0.04591573,0.016261094,0.034445867
1.756,0.028133053,0.051233645,0.045911742,0.016260657,0.034444793
1.76,0.028133221,0.051233074,0.04591677,0.01626116,0.034444859
1.764,0.028133188,0.051233645,0.04592123,0.016261496093749998,0.034446605468749995
1.768,0.028132617,0.051233812499999996,0.045918781,0.0162621,0.034449656249999995
1.772,0.028132482421874997,0.051233242,0.045915226562499994,0.016261697,0.034447945
1.776,0.028132047,0.051231633,0.045911305,0.016260591,0.034446305
1.78,0.028131611,0.051230293,0.045915664,0.016260088,0.034450492
1.784,0.028131443359374998,0.051230965,0.045919621093749995,0.016260389648437498,0.034452504
1.788,0.028130639,0.051231132812499997,0.045918246,0.016260993164062498,0.034452574
1.792,0.028129869,0.051230293,0.04591573,0.016260657,0.034451164
1.796,0.028129633,0.051228348,0.045911035156249995,0.016259919921874998,0.034450727
1.8,0.028130371,0.05122741,0.045914824,0.016260188,0.034451332
1.804,0.028130070312499998,0.05122741,0.045919652,0.016260591,0.034453176
1.808,0.028129801,0.051227878906249996,0.045917875,0.016260725,0.034455188
1.812,0.028129533203124998,0.051228046874999995,0.04591382,0.016259919921874998,0.034454281249999996
1.816,0.028129164,0.051227039,0.045909563,0.016257976,0.03445284
1.82,0.028128962890624998,0.051226234,0.045914222656249996,0.016257506,0.034453711
1.824,0.028129299,0.051226707,0.045918012,0.016257774,0.034455625
1.828,0.028130437499999997,0.051226972656249994,0.045915563,0.016258009,0.034455289
1.832,0.028130773,0.051226304687499995,0.045911438,0.016257539,0.034454281249999996
1.836,0.028130875,0.051224762,0.045906609,0.016255795898437498,0.034452504
1.84,0.028131311,0.051223253906249995,0.045911809,0.016255092,0.034453176
1.844,0.028131109374999998,0.051222882812499995,0.045916266,0.016255394,0.034455055
1.848,0.028130974609374998,0.051223253906249995,0.045914961,0.016256801757812498,0.034457601562499995
1.852,0.028130673828124998,0.051222414,0.045912309,0.016257807617187498,0.034458004
1.856,0.028130807,0.051221105,0.045908656,0.01625707,0.034457367
1.86,0.028131142578124997,0.051221074218749996,0.045914222656249996,0.016257003,0.034456262
1.864,0.028131578124999997,0.051221508,0.045918445,0.016256936,0.034456359374999995
1.868,0.028131578124999997,0.051221609,0.045916332,0.0162565,0.034456863
1.872,0.028131878906249998,0.051221074218749996,0.045912813,0.016255092,0.034456629
1.876,0.02813208,0.051219664062499996,0.045908723,0.01625365,0.034454418
1.88,0.028132449218749998,0.051218926,0.045913516,0.016253113,0.034454148
1.884,0.028132884765624998,0.051218727,0.045917441406249995,0.016253684,0.034456359374999995
1.888,0.028133389,0.051218757812499995,0.045915328124999995,0.016254153,0.034458207
1.892,0.028133656,0.051218188,0.045910902,0.016253147,0.034458773
1.896,0.028133322,0.051217082,0.045906309,0.016252041,0.034457535156249997
1.9,0.028133355,0.051217050781249995,0.045911238281249996,0.016252879,0.034458004
1.904,0.028134025390624998,0.051217352,0.045916031249999996,0.016254488,0.034459714843749996
1.908,0.028134395,0.051216914,0.045914422,0.016254991,0.034460453
1.912,0.028134395,0.051215941,0.045910902,0.01625432,0.034460148
1.916,0.028134395,0.051215473,0.045907316406249996,0.016252678,0.034458172
1.92,0.028134730468749997,0.051214535,0.045912645,0.01625194,0.034459379
1.924,0.028134896484374998,0.051213027343749995,0.045916973,0.016251806640624998,0.034460953
1.928,0.028135334,0.051212656249999995,0.045914793,0.016251639,0.034462227
1.932,0.028134562499999998,0.051211683593749995,0.045911172,0.0162507,0.034462664062499995
1.936,0.028133724609374997,0.051209976562499995,0.045907046874999996,0.016249694,0.034462129
1.94,0.028133791,0.051208969,0.045913316406249995,0.016251103,0.03446357
1.944,0.028134629,0.05120927,0.045918378906249994,0.016253817,0.03446518
1.948,0.028135869,0.051208566406249996,0.045916168,0.016255394,0.03446682
1.952,0.028135938,0.051207461,0.045912210937499996,0.016255628,0.034465445312499995
1.956,0.028135938,0.051205480468749995,0.045908453,0.016254053,0.034463234
1.96,0.028135736328124997,0.051204309,0.045913184,0.016253516,0.034462867187499996
1.964,0.028135668,0.051205246,0.045917273437499996,0.016254556,0.034462765624999996
1.968,0.028136809,0.051205316,0.045915027,0.016254622,0.034462394531249996
1.972,0.028136875,0.051203402343749996,0.045911305,0.016252879,0.03446109
1.976,0.028135971,0.051201293,0.045908219,0.016251136,0.034460953
1.98,0.02813634,0.051200219,0.04591382,0.016251269531249998,0.034463066
1.984,0.028137144531249998,0.051200519531249995,0.045917539,0.016252074,0.034463402
1.988,0.028137478515624998,0.051199917968749994,0.045914824,0.016252879,0.034464675781249995
1.992,0.028137076171874997,0.051197468749999996,0.045911070312499996,0.01625251,0.034464273
1.996,0.028136138671874998,0.051194382812499994,0.04590775,0.016251438,0.03446377
2,0.028136505859374997,0.051193512,0.045912477,0.016250800781249998,0.034463703
2.004,0.028136171874999998,0.051194082,0.045916367,0.016250432,0.034463504
2.008,0.028136037109374998,0.051194753906249994,0.045913617,0.016249761,0.034463168
2.012,0.028135199,0.051194551,0.045909563,0.016249191,0.034463133
2.016,0.028134193,0.051194082,0.045906207,0.016247648437499998,0.034461992
2.02,0.028134965,0.051194953,0.045912145,0.016248018,0.034461258
2.024,0.028136205078124997,0.051195492,0.045916300781249995,0.016248923,0.034464977
2.028,0.028136541,0.051194887,0.045914523,0.01624956,0.034467527
2.032,0.028136607421874998,0.051194621,0.045911406249999995,0.016249258,0.034467223
2.036,0.0281354,0.051193313,0.045907148437499996,0.016247816,0.034465348
2.04,0.028135098,0.05119234,0.045912210937499996,0.016248186,0.034466285
2.044,0.028136305,0.05119234,0.045917609374999994,0.016249594,0.0344685
2.048,0.028136943,0.051192609374999996,0.045915929687499996,0.016250398,0.034471348
2.052,0.028136707,0.051192406249999996,0.045912309,0.016250230468749998,0.034471348
2.056,0.028135836,0.051191468749999997,0.045907648,0.016249091,0.034469671874999996
2.06,0.028136505859374997,0.051191734,0.045912344,0.016248521,0.034469671874999996
2.064,0.028137445,0.05119157,0.045915195,0.016247917,0.034469035
2.068,0.028136809,0.051191098,0.045913516,0.016248018,0.034469504
2.072,0.028135736328124997,0.05118959,0.045910699,0.016248487,0.034469203
2.076,0.028134395,0.051188148,0.045906375,0.016247280273437498,0.034468332
2.08,0.028134629,0.051187781249999995,0.045911136718749995,0.016247615,0.034468195
2.084,0.028134764,0.05118825,0.04591459,0.016248151367187498,0.034468262
2.088,0.028135132812499998,0.051188316406249997,0.045911136718749995,0.016248521,0.034469203
2.092,0.028135031249999998,0.051187410156249995,0.045907414,0.016248252,0.034468164
2.096,0.028134998,0.051186371093749995,0.045904027,0.016247582,0.034467156
2.1,0.028135166015624997,0.051186707,0.045909124999999995,0.016248789062499998,0.034468699218749996
2.104,0.028134998,0.051187043,0.045913684,0.016250432,0.034470645
2.108,0.028135166015624997,0.051186875,0.045912242,0.016251203,0.034472387
2.112,0.028134494140624997,0.051185699,0.045909023437499995,0.016250968,0.034471047
2.116,0.028133689,0.051184762,0.045905035156249996,0.016250029,0.034469703
2.12,0.028133959,0.051184125,0.045910836,0.016249996,0.03446927
2.124,0.028133959,0.051183957,0.045915027,0.016250968,0.034470878906249995
2.128,0.028134058593749997,0.051182684,0.045911809,0.016251303710937498,0.034472453
2.132,0.028134328,0.051181109,0.045907785,0.016251505,0.034471313
2.136,0.028133589843749997,0.051179598,0.045903695,0.016250935,0.034471383
2.14,0.028133389,0.05117866,0.045908219,0.016250766601562498,0.034471918
2.144,0.028133890624999998,0.051178594,0.045912043,0.016250867,0.034471281
2.148,0.028134395,0.051178324218749995,0.045910367187499995,0.016251136,0.034471582031249996
2.152,0.028133488281249997,0.051177117187499996,0.045907383,0.016251471,0.034471348
2.156,0.028131779,0.051176582,0.045903461,0.016250935,0.034470008
2.16,0.028131645,0.051177352,0.045907984374999995,0.016250331,0.034470441406249996
2.164,0.028132281,0.051177453124999994,0.045911070312499996,0.016249023,0.034470980468749995
2.168,0.02813235,0.051176582,0.045908488,0.016248588,0.034471851562499996
2.172,0.028131846,0.051176547,0.045904699,0.01624842,0.034470105
2.176,0.028131007812499997,0.051176515624999995,0.045901246,0.016248353,0.034468363
2.18,0.028131344,0.051176582,0.045907449,0.01624842,0.034468867
2.184,0.028131878906249998,0.051177586,0.045911641,0.016248822,0.034469906
2.188,0.028131712890624997,0.051178125,0.045909828124999996,0.016249493,0.034471313
2.192,0.028131209,0.051177554687499995,0.045905304687499995,0.016249258,0.034470543
2.196,0.028130875,0.051176246093749996,0.045900609,0.016247917,0.034469066
2.2,0.028131544921874998,0.051175844,0.045905035156249996,0.016247280273437498,0.034469773
2.204,0.028131443359374998,0.051175542968749994,0.045908488,0.016247414,0.034471215
2.208,0.028131443359374998,0.051175074,0.045906477,0.01624795,0.034473527
2.212,0.028131344,0.051174,0.045903023437499996,0.016247615,0.034474398
2.216,0.028131142578124997,0.051172492187499995,0.04589843,0.016246911,0.034474531249999996
2.22,0.028132115234374998,0.051172324218749995,0.045903527,0.016246743,0.034476309
2.224,0.028132617,0.051171953124999996,0.045907281,0.016246542,0.034477418
2.228,0.028131914,0.051171453124999995,0.045905672,0.016246777343749998,0.034478554687499996
2.232,0.028131947,0.051169676,0.045901949218749995,0.016246609,0.034478758
2.236,0.028131645,0.051168132812499996,0.045898563,0.01624557,0.034476812499999995
2.24,0.028132182,0.051167496,0.045903624999999997,0.016245234,0.034476477
2.244,0.028132550781249998,0.051167027,0.045905972656249995,0.016245737,0.034475874999999996
2.248,0.028133154296874997,0.051166992187499996,0.045903124999999996,0.016244933,0.034475809
2.252,0.028133656,0.051165684,0.045899438,0.01624329,0.03447641
2.256,0.028133656,0.051163473,0.045895949218749996,0.016241647460937498,0.034476242
2.26,0.028133523,0.051162836,0.045901547,0.016242217,0.03447698
2.264,0.028133389,0.051162938,0.045905637,0.016243391,0.034478086
2.268,0.028133926,0.051162434,0.045903527,0.016244263,0.03448
2.272,0.028133857,0.051161996093749995,0.045900777,0.016244933,0.034478422
2.276,0.028133121093749998,0.051160355468749995,0.045897324,0.016245335,0.034477383
2.28,0.028133623,0.05116032,0.045903258,0.016246609,0.034479328
2.284,0.028134361,0.051160926,0.045908152,0.016247246,0.034481742
2.288,0.028134662,0.05116109,0.045905637,0.016247246,0.03448248
2.292,0.028134428,0.051160824,0.045900711,0.016247079,0.034483015624999995
2.296,0.028133890624999998,0.051159648,0.045897391,0.016246341,0.034482008
2.3,0.028133992187499998,0.051158645,0.045903527,0.016246777343749998,0.034482445
2.304,0.028133992187499998,0.05115918,0.045907917968749996,0.016247414,0.034482883
2.308,0.028134160156249997,0.051159852,0.045906039,0.01624795,0.034484121
2.312,0.028134293,0.051159719,0.045901949218749995,0.016247079,0.034482578124999996
2.316,0.028134092,0.051158746,0.045898398437499995,0.016245503,0.034479762
2.32,0.028133287,0.051158578,0.045903828,0.016245670898437498,0.034481105468749995
2.324,0.028133758,0.051159887,0.045907852,0.016246844,0.034483082
2.328,0.028134293,0.051160121,0.045905539,0.016247347,0.03448325
2.332,0.028134227,0.051158512,0.045901179687499995,0.016246677,0.03448241
2.336,0.028134126953124998,0.051156969,0.045897156,0.016246139648437498,0.034482445
2.34,0.028133959,0.051157035156249996,0.045902488,0.01624624,0.034483551
2.344,0.028134494140624997,0.051158242187499994,0.045906441,0.016246944,0.034483688
2.348,0.028134662,0.051158813,0.045904969,0.016247515,0.034484257812499995
2.352,0.028134395,0.051158543,0.045900910156249995,0.016246576,0.034483551
2.356,0.028133322,0.05115757,0.045896921874999996,0.016244162109374998,0.034482078124999996
2.36,0.028133791,0.051157371,0.045902117,0.016243659179687498,0.034482883
2.364,0.028134395,0.051157875,0.04590527,0.016243559,0.034484156
2.368,0.028134562499999998,0.051157804687499996,0.045902820312499995,0.016243726,0.034484859374999996
2.372,0.028133589843749997,0.051156867187499996,0.045899101562499996,0.016243156249999998,0.03448516
2.376,0.028132986328124998,0.051155156,0.045896082,0.016242553,0.034484289
2.38,0.028132953,0.051154789,0.04590175,0.016243223,0.034486301
2.384,0.028133287,0.051155324,0.045905875,0.01624453,0.034487640624999996
2.388,0.028134460937499998,0.051155762,0.045903695,0.016244731,0.034487508
2.392,0.028134629,0.051154891,0.045899672,0.016244195312499998,0.034485664
2.396,0.028133992187499998,0.051153684,0.045895414,0.016242921,0.034486434
2.4,0.028134494140624997,0.051153816,0.045899906,0.016243156249999998,0.034488379
2.404,0.028135334,0.051153516,0.045903359,0.016243726,0.034489285
2.408,0.028135869,0.051152879,0.045900441,0.016243323,0.034488547
2.412,0.028135132812499998,0.051150999999999995,0.045896148,0.016243189,0.034486672
2.416,0.028134562499999998,0.051149355,0.045892027343749996,0.016241647460937498,0.034484457
2.42,0.028134562499999998,0.051149191406249996,0.045897559,0.01624081,0.034484523
2.424,0.028134193,0.051149594,0.045901281249999995,0.016241714843749998,0.034484793
2.428,0.028134293,0.05114966,0.045898230468749995,0.016242251,0.034484793
2.432,0.028133758,0.051147949218749995,0.045893703,0.016241547,0.034484089843749996
2.436,0.028132383,0.051146004,0.045888941406249995,0.016239535,0.034480234
2.44,0.028131377,0.051145402,0.04589357,0.016238396,0.034479027343749996
2.444,0.028130908,0.051144395,0.045896218749999995,0.016239065429687498,0.03447916
2.448,0.028130639,0.051142918,0.04589357,0.016239267,0.034480066406249996
2.452,0.028130437499999997,0.051140605468749996,0.045889781,0.016238059570312498,0.034478457
2.456,0.028129734,0.051138093749999995,0.045885188,0.016235881,0.034475976562499996
2.46,0.028130371,0.051137019531249994,0.045889211,0.01623568,0.034477652
2.464,0.028130271,0.051136683593749996,0.045891793,0.016236183,0.034478992
2.468,0.028130236,0.051135109374999994,0.045889344,0.016236115,0.034479964843749995
2.472,0.028129833984374998,0.051132996,0.045884984,0.016234539,0.034478086
2.476,0.028129332,0.051130883,0.045880828124999995,0.016232695,0.034476344
2.48,0.028130103515624998,0.051129645,0.045885219,0.01623236,0.03447782
2.484,0.028130639,0.051128871,0.045887535,0.016232595,0.034478391
2.488,0.028130473,0.051127867187499995,0.045885824218749996,0.016233131,0.03447943
2.492,0.028130203,0.051125855468749995,0.045882,0.016232092,0.034478523
2.496,0.028129499999999998,0.051122938,0.045877777343749995,0.01623065,0.03447641
2.5,0.02812893,0.051122301,0.045882473,0.016231019531249998,0.034478992
2.504,0.028129701,0.051122332031249995,0.045886359,0.016233432617187498,0.034481742
2.508,0.028129936,0.051121629,0.04588368,0.016234372,0.034482914
2.512,0.028130001953124997,0.051119719,0.045879152,0.016232796,0.034480434
2.516,0.028130070312499998,0.05111734,0.045875398,0.016230047,0.034478121
2.52,0.028130807,0.051116801,0.045879621093749996,0.016229209,0.034479262
2.524,0.028131209,0.051117472656249996,0.045882636718749994,0.01622931,0.034480902
2.528,0.028131410156249998,0.051116836,0.045880793,0.016229343,0.03448191
2.532,0.028130941,0.051114992,0.045876804687499995,0.01622884,0.034478554687499996
2.536,0.028129533203124998,0.051112476562499995,0.045873082,0.01622666,0.034476379
2.54,0.028129332,0.051111637,0.045878012,0.016226393,0.034477383
2.544,0.028129164,0.051111906,0.045881164,0.016227532,0.034479262
2.548,0.02812923,0.051111437499999995,0.045878883,0.016228304,0.03448077
2.552,0.028129299,0.051110867,0.04587523,0.016227431640624998,0.034481676
2.556,0.028128461,0.051109527343749996,0.045871777343749996,0.016226023,0.034479863281249995
2.56,0.028128425781249997,0.051109324218749995,0.045876402,0.016226493164062498,0.034480234
2.564,0.028128359,0.051109293,0.045879051,0.016226292,0.034481773
2.568,0.028128461,0.051108891,0.045876438,0.016225453,0.034481742
2.572,0.028128594,0.051107613,0.045872343749999996,0.016224481445312498,0.034480066406249996
2.576,0.028128425781249997,0.051105300781249995,0.045868320312499995,0.01622314,0.034478992
2.58,0.028128795,0.051104160156249995,0.04587352,0.016223374999999998,0.034480602
2.584,0.028129365,0.051103559,0.045876535156249995,0.016223944,0.034481305
2.588,0.02812893,0.051103793,0.045874523437499995,0.016223643,0.034481441
2.592,0.028128695,0.051103523,0.045870499999999995,0.016222436,0.034478992
2.596,0.028127756,0.051101378906249995,0.045866410156249995,0.01622076,0.03447725
2.6,0.028127119,0.051100406,0.045872246,0.016221195,0.034478691
2.604,0.028126783,0.051101012,0.045876,0.016222269,0.034480332
2.608,0.02812675,0.051100809,0.045874191,0.016223039,0.034481574
2.612,0.028126281,0.051099973,0.045870234,0.016221899,0.034480969
2.616,0.028126113,0.051098328124999995,0.045866242187499996,0.016219687,0.03447993
2.62,0.028127018,0.051097457031249995,0.04587057,0.016218647,0.034478992
2.624,0.028127957031249998,0.051096887,0.04587352,0.016218446,0.03447832
2.628,0.028127621,0.051096214843749994,0.045871238,0.016218614,0.034477886718749996
2.632,0.028126549,0.051095546874999995,0.045868156,0.016218781249999998,0.034477183593749995
2.636,0.028125644531249997,0.05109427,0.045865574218749997,0.016218413085937498,0.034475874999999996
2.64,0.028125979,0.051093097656249996,0.045870938,0.01621858,0.034476379
2.644,0.028125744,0.051092328124999996,0.045873953,0.01621952,0.03447668
2.648,0.028125443,0.05109159,0.045871137,0.016220257,0.03447802
2.652,0.028124705,0.051090887,0.045867316,0.016219888,0.034476781
2.656,0.028123967,0.051089879,0.045864301,0.016219687,0.034475773437499996
2.66,0.028123867,0.051090414,0.045869863,0.016220022,0.034478523
2.664,0.028124438,0.051091253906249995,0.045874156,0.016221329101562498,0.034480602
2.668,0.028125443,0.051091926,0.045872582,0.016222269,0.034481172
2.672,0.028124638671874997,0.05109102,0.045870098,0.016221798828124998,0.034481105468749995
2.676,0.028123633,0.051090348,0.045867719,0.016221062,0.034481203
2.68,0.028124705,0.051090516,0.045872343749999996,0.016221396,0.034483082
2.684,0.028124503906249997,0.051089645,0.045875934,0.016222536,0.034484589843749996
2.688,0.028123900390624998,0.051089039,0.045874258,0.016222805,0.034485664
2.692,0.028123264,0.051088336,0.045870402,0.016221933,0.034485094
2.696,0.028122592,0.051086960937499995,0.045867215,0.016220357421874998,0.034483418
2.7,0.028123900390624998,0.05108743,0.045872914,0.016220725585937498,0.034484457
2.704,0.028124705,0.05108857,0.045877039,0.016221731,0.034487574
2.708,0.02812484,0.05108884,0.045875398,0.01622257,0.034488445
2.712,0.028124335937499998,0.051087668,0.045871304687499996,0.01622247,0.034486871093749996
2.716,0.028123396,0.051085921874999995,0.045867047,0.016220894,0.034483352
2.72,0.028123264,0.051086124999999996,0.04587191,0.016220692,0.034483082
2.724,0.028123765624999998,0.051086292968749995,0.045875094,0.016220961,0.034486469
2.728,0.028124236,0.051086460937499995,0.045873117,0.016222101,0.034487777
2.732,0.028123598,0.051086727,0.045869898,0.016222637,0.034487140624999996
2.736,0.028123062499999997,0.05108552,0.045866242187499996,0.016221631,0.034486535
2.74,0.028123330078124998,0.051084414,0.045871441,0.016221229,0.034487105
2.744,0.028123432,0.051084715,0.045874324,0.01622143,0.034487945
2.748,0.028122961,0.051083813,0.045872582,0.016221263,0.034489555
2.752,0.028122894531249998,0.051081801,0.04586916,0.016220592,0.034489320312499995
2.756,0.028122559,0.051080691406249996,0.045865437499999995,0.016219955,0.034487207
2.76,0.028122225,0.051081027343749995,0.045871238,0.016221062,0.03448848
2.764,0.028122225,0.051081699,0.045875965,0.01622324,0.03449066
2.768,0.02812209,0.051082101562499996,0.045874023,0.016223643,0.034492
2.772,0.028121654,0.051081128906249995,0.04586993,0.016222033,0.034490859374999995
2.776,0.02812115,0.051079551,0.045865808593749995,0.01621952,0.034488984
2.78,0.028121419921874998,0.051079855,0.045870601562499995,0.016218379,0.034489320312499995
2.784,0.028121688,0.051080625,0.045874859,0.016218413085937498,0.034490625
2.788,0.028121988,0.051080191406249996,0.045873418,0.016219687,0.034491898
2.792,0.02812152,0.051079418,0.045868992,0.016220022,0.034491832031249996
2.796,0.028120715,0.051077305,0.045865305,0.01621905,0.034492672
2.8,0.028121051,0.051076871,0.045870234,0.01621952,0.034494383
2.804,0.028121855,0.051077305,0.045873082,0.016219553,0.034493746
2.808,0.028123162,0.051076871,0.045869664062499996,0.016219017,0.034493508
2.812,0.028122592,0.051075363,0.045864801,0.016218044,0.034492871093749995
2.816,0.028119576171874997,0.051073922,0.045862086,0.016217742,0.034493441
2.82,0.028118837890624998,0.051073922,0.045868758,0.016218815,0.03449475
2.824,0.028119072,0.051074961,0.045871977,0.01621915,0.034496124999999996
2.828,0.028118369,0.051075293,0.045869765624999996,0.016218916015624998,0.034497434
2.832,0.028116559,0.05107516,0.045866813,0.016217842773437498,0.03449693
2.836,0.028115283203124997,0.05107382,0.045864230468749996,0.016216669,0.034496426
2.84,0.028115451,0.051072914062499995,0.045869059,0.016216703,0.034497097656249996
2.844,0.028115016,0.051072547,0.045872746,0.016217675,0.034498707
2.848,0.028114445,0.051071976562499996,0.045871441,0.016219251,0.034500652
2.852,0.028114512,0.051071171874999995,0.045867082,0.016218715,0.034500551
2.856,0.028114881,0.051069695312499996,0.045862957,0.01621744,0.034498473
2.86,0.028115685546874998,0.051070164,0.045867617,0.016217005,0.034498641
2.864,0.02811592,0.051071035,0.045871304687499996,0.016217272460937498,0.034498977
2.868,0.028115955078124998,0.051071003906249995,0.045869664062499996,0.016217910156249998,0.034498504
2.872,0.028116156,0.051069863281249996,0.045865238,0.016217709,0.034497566
2.876,0.028115853515624997,0.051067348,0.045860945,0.016216300781249998,0.034497164062499995
2.88,0.028116457,0.051065839843749995,0.045866343749999997,0.016215864,0.034498172
2.884,0.028117529,0.051065371,0.045869562499999995,0.016215932,0.034498406249999995
2.888,0.028117564453124997,0.051064699218749995,0.04586698,0.016215932,0.034499109374999996
2.892,0.028117027,0.051063828124999995,0.045863023,0.016215496,0.034497265624999995
2.896,0.028116523,0.051062085937499994,0.045859269531249996,0.016214221679687498,0.034493813
2.9,0.028116625,0.051061113,0.045865137,0.016214322,0.034493343749999995
2.904,0.028116121093749998,0.05106118,0.045868723,0.016214926,0.034496191
2.908,0.028114847656249997,0.051061012,0.045866781249999995,0.016215328124999998,0.034498707
2.912,0.028113607,0.051060574218749995,0.045864031,0.016215763671874998,0.034498875
2.916,0.028113541,0.051059738281249996,0.045860777,0.01621506,0.034497531
2.92,0.028114847656249997,0.051059504,0.045865539062499995,0.016214858,0.03449552
2.924,0.028115451,0.051059066,0.045867652343749996,0.016213651367187498,0.034494551
2.928,0.028114613,0.051058465,0.04586534,0.016213183,0.034494852
2.932,0.028114512,0.05105766,0.045861617187499995,0.016211841,0.034493175781249996
2.936,0.028113607,0.051055613281249995,0.045857727,0.01620983,0.034492101562499995
2.94,0.028112265624999997,0.051055109,0.045863227,0.016210130859374998,0.034493879
2.944,0.028110187499999998,0.051055546874999996,0.045866714843749996,0.016211237,0.034495453
2.948,0.028107169921874998,0.051056387,0.045866242187499996,0.016212746,0.034499512
2.952,0.02810623,0.051056887,0.045864199,0.016213417,0.034501289062499996
2.956,0.028106632812499997,0.051055414,0.04586202,0.016213987,0.034501289062499996
2.96,0.028107473,0.051055277,0.045866914,0.016214154296874998,0.03450159
2.964,0.028108644531249997,0.051056051,0.045869629,0.016214591,0.034501859
2.968,0.028109751953124998,0.051055648,0.045866879,0.016214757812499998,0.034503234
2.972,0.028109919921874997,0.051054441,0.045862254,0.016213585,0.034502027
2.976,0.028109617187499998,0.051052262,0.04585793,0.016211405,0.034500852
2.98,0.028110187499999998,0.051051055,0.045862891,0.016210299,0.03449941
2.984,0.028109818,0.051051253906249996,0.04586584,0.016210198242187498,0.03449968
2.988,0.028109349609374997,0.051050921874999995,0.04586316,0.016210031,0.034501019531249996
2.992,0.028109148,0.051050586,0.045859102,0.01620983,0.03450132
2.996,0.028108310546874998,0.051049949218749995,0.045855918,0.016208958,0.034499512
3,0.028108914,0.051048910156249995,0.045861281,0.016209293,0.034500249999999996
3.004,0.028110187499999998,0.051048910156249995,0.045864230468749996,0.016209461,0.034502563
3.008,0.02811116,0.051048977,0.045861281,0.016209997,0.034503398
3.012,0.028110254,0.051048910156249995,0.045857227,0.016209126,0.034502261718749996
3.016,0.028109818,0.051047667968749995,0.045854074,0.016208689453124998,0.034501121093749997
3.02,0.028110154,0.051047902,0.045860476562499995,0.016210098,0.034501555
3.024,0.028110925781249997,0.051048508,0.045863898437499995,0.016211707031249998,0.034501992
3.028,0.028111193359374998,0.051048508,0.045861582,0.016212645507812498,0.034502125
3.032,0.02811059,0.051047465,0.045856891,0.016211875,0.034501523
3.036,0.028109584,0.051046359374999996,0.045854039,0.016210299,0.034499945312499995
3.04,0.028109686,0.051045992,0.045860039062499997,0.016210299,0.034499543
3.044,0.028110523,0.051046328,0.045863293,0.016210366,0.034499848
3.048,0.028112232421874998,0.051046996,0.045861347656249996,0.016210633789062498,0.034500449
3.052,0.028111193359374998,0.051046527343749995,0.045857461,0.016210668,0.034499711
3.056,0.028109214843749997,0.051044918,0.045853973,0.016209863,0.03449884
3.06,0.028110187499999998,0.051044246093749995,0.045860374999999995,0.016210265624999998,0.034500449
3.064,0.028111863,0.05104475,0.045863695,0.016210633789062498,0.034503566
3.068,0.028112568,0.051045355,0.045861785,0.016210633789062498,0.034505078
3.072,0.028111965,0.051045188,0.045858332,0.016210835,0.034503234
3.076,0.028111091796874998,0.051044047,0.045855781,0.016209494,0.034499848
3.08,0.028111361328124997,0.051044047,0.045861816,0.016209126,0.034501223
3.084,0.028111127,0.051044316,0.045865640624999995,0.016209796,0.034504070312499996
3.088,0.028110757812499998,0.051045523,0.045863898437499995,0.016210533,0.034504875
3.092,0.028110523,0.051045757812499995,0.045860344,0.016209762695312498,0.034503668
3.096,0.028109650390624998,0.051044918,0.045856988,0.016208186523437498,0.034502359
3.1,0.028109785156249997,0.051044582,0.045862723,0.016208388,0.034503566
3.104,0.028110422,0.051044383,0.04586584,0.016209126,0.034504574
3.108,0.028111127,0.051044113,0.045862621,0.016208723632812498,0.034504809
3.112,0.028110757812499998,0.051042973,0.045858633,0.016207784,0.034504406
3.116,0.028109584,0.051041902,0.045855852,0.016206477,0.034502695
3.12,0.028110220703124997,0.051041801,0.045861785,0.016206242,0.034502563
3.124,0.028111025,0.051042238,0.045864703124999996,0.016206778,0.034503133
3.128,0.028111293,0.051043109,0.045862121,0.016207080078124998,0.034503300781249996
3.132,0.028110488,0.051041969,0.045858633,0.016206678,0.034501457
3.136,0.028110053,0.051039117,0.045854644531249995,0.016205739,0.034500684
3.14,0.028110925781249997,0.051037710937499994,0.045859371,0.016205337,0.034502629
3.144,0.02811126,0.051038012,0.045862855,0.016205672,0.034503602
3.148,0.028111695312499997,0.051037879,0.045860777,0.016206008,0.034505210937499996
3.152,0.028111896,0.051037542968749995,0.045856754,0.016205672,0.034504875
3.156,0.028111931640624997,0.051036637,0.045853335937499996,0.016204499,0.034503902
3.16,0.0281124,0.051036469,0.045858766,0.016204097,0.034504641
3.164,0.028113037,0.051036367,0.045862188,0.016204666,0.034506688
3.168,0.028113004,0.05103684,0.045860879,0.016205035,0.034508328
3.172,0.028112133,0.051036738,0.045856988,0.016204767,0.034508227
3.176,0.028110757812499998,0.051035832,0.045854476562499996,0.016203626953124998,0.034507422
3.18,0.028110689453124997,0.051035328124999994,0.045860039062499997,0.016202822,0.034506215
3.184,0.028111563,0.051035398,0.045863293,0.016202789,0.034506988
3.188,0.028112667968749998,0.051035429687499995,0.045860711,0.016202387,0.034507824
3.192,0.028111931640624997,0.051034660156249995,0.045857125,0.016201381,0.034507859
3.196,0.028112265624999997,0.051032984,0.045853066,0.016199502929687498,0.034507222656249996
3.2,0.028112602,0.051031809,0.045856754,0.016199168,0.034508598
3.204,0.028112568,0.051031105,0.04585843,0.016199502929687498,0.034509168
3.208,0.028113205,0.051030570312499995,0.04585602,0.016199402,0.034508093749999996
3.212,0.028111863,0.051028656,0.045851355,0.016198162,0.034508261718749995
3.216,0.028110322265624998,0.051026613,0.045847266,0.016196485351562498,0.03450709
3.22,0.02811116,0.051025941,0.045852063,0.016195546874999998,0.034505312499999996
3.224,0.028111529,0.051025473,0.045854141,0.016194071,0.034504641
3.228,0.028111328124999998,0.051024535156249995,0.045850719,0.016193367,0.034506285
3.232,0.028111428,0.051022691,0.045845121093749996,0.016192127,0.034506855
3.236,0.028110857,0.051020609,0.045841164062499995,0.016190082,0.034505176
3.24,0.028110992,0.051019168,0.045846363,0.016189646,0.034505078
3.244,0.028110557,0.051018766,0.045849312499999996,0.016189478515624998,0.034505914
3.248,0.028110088,0.051018933593749996,0.045848207,0.016190283,0.03450766
3.252,0.028109518,0.051018195,0.045845758,0.016191523,0.034508227
3.256,0.028109751953124998,0.051017292968749996,0.045843613,0.01619045,0.034506887
3.26,0.028110355468749997,0.051017762,0.045849109374999995,0.016190015,0.034506754
3.264,0.028110355468749997,0.051018297,0.045852664,0.016190316,0.034508093749999996
3.268,0.028110757812499998,0.051018566,0.045850117,0.016191021,0.034508965
3.272,0.028111059,0.051017996,0.045846429687499995,0.016190752,0.034508395
3.276,0.028110992,0.051017059,0.045843109374999996,0.016189746,0.03450759
3.28,0.028111091796874998,0.051017227,0.045848507812499995,0.016190015,0.034508261718749995
3.284,0.02811126,0.051018098,0.045851996,0.016190852539062498,0.034509234374999996
3.288,0.028111763671874998,0.051018499999999994,0.045849883,0.016190919921874998,0.03450977
3.292,0.028112199218749998,0.051017191406249995,0.045845656,0.016189947,0.034508063
3.296,0.028112333984374998,0.051014945,0.045842406249999995,0.016187869,0.034505043
3.3,0.028112434,0.051015246,0.045849042968749996,0.016187132,0.034505145
3.304,0.028113004,0.051016656,0.045852195312499996,0.016187266,0.034506988
3.308,0.028113339843749998,0.051017089843749995,0.045849914,0.016186763,0.034509301
3.312,0.028112769531249998,0.051015781249999996,0.045844953,0.016186494,0.034509434
3.316,0.028112434,0.051014711,0.045840762,0.016185354492187498,0.034507222656249996
3.32,0.028112667968749998,0.051014645,0.045846094,0.016185086,0.034506887
3.324,0.028112602,0.051015215,0.045849984,0.016186192,0.034508629
3.328,0.028112602,0.051015414,0.045849414062499996,0.0161875,0.034511547
3.332,0.028112937499999997,0.051014039062499995,0.045845457031249995,0.016187132,0.034510441
3.336,0.028112602,0.051012898437499996,0.045842339843749996,0.016185890624999998,0.034508063
3.34,0.028113103515624998,0.051013535,0.045848844,0.016186159,0.034508395
3.344,0.028113373046874997,0.051014477,0.045851593749999996,0.016186427734374998,0.034509672
3.348,0.028113808593749998,0.051014711,0.045849042968749996,0.016186963867187498,0.034511582
3.352,0.028114043,0.051013672,0.04584559,0.016186863281249998,0.034512352
3.356,0.028114043,0.051011859374999996,0.045842136718749996,0.016185924804687498,0.034511012
3.36,0.028113406,0.051011121,0.045847300781249996,0.016185387695312498,0.034511414062499995
3.364,0.028112602,0.051010386718749995,0.045850316,0.016185387695312498,0.034513793
3.368,0.028112535,0.051009847656249996,0.04584673,0.016185254,0.034514598
3.372,0.028111662109374998,0.051008777,0.045841535156249995,0.01618455,0.034513191
3.376,0.028111494,0.051007,0.04583741,0.016182236,0.034511281
3.38,0.028111596,0.051006832,0.045841902,0.016180291992187498,0.034510374999999996
3.384,0.028111763671874998,0.051007335937499995,0.045844585937499994,0.016179789062499998,0.034510742
3.388,0.028112097656249998,0.051006461,0.045841398,0.016180124,0.034511012
3.392,0.028112097656249998,0.051004754,0.045836972656249995,0.016178582,0.034510171874999995
3.396,0.028112333984374998,0.051003312499999995,0.045833117,0.016177308,0.034508664
3.4,0.028112802734374998,0.051002605,0.045837175781249996,0.016177006,0.034508093749999996
3.404,0.028112568,0.05100234,0.045839152343749995,0.016177408,0.03450759
3.408,0.028112265624999997,0.051001398,0.045836773,0.016177006,0.03450766
3.412,0.028111361328124997,0.050999758,0.045832918,0.016175866,0.034506453124999996
3.416,0.028109852,0.05099818,0.045829296874999995,0.016173922,0.034504707
3.42,0.028109214843749997,0.050997141,0.045835230468749995,0.016173419,0.034506383
3.424,0.028109046874999998,0.050996738281249995,0.045838551,0.016174123,0.034507492187499995
3.428,0.028108813,0.050996136718749994,0.045837140624999995,0.016174559,0.034508363281249996
3.432,0.028107975,0.050995164,0.045834594,0.016174458,0.034508664
3.436,0.028106969,0.050993184,0.045831879,0.016173753906249998,0.034508832
3.44,0.028106566,0.05099191,0.045837645,0.016173653,0.034509434
3.444,0.028106834,0.050992145,0.045841164062499995,0.016174592,0.034510508
3.448,0.028107404,0.050991843749999995,0.045838516,0.016175330078124998,0.034512621
3.452,0.028107807,0.050990636718749996,0.045833387,0.016173988,0.034512219
3.456,0.028108479,0.050988594,0.04582916,0.016171474,0.034510742
3.46,0.028109316406249998,0.050987585937499996,0.045834191406249995,0.016170568359374998,0.034511246093749996
3.464,0.028109719,0.050987585937499996,0.045837074218749996,0.016170938,0.034513191
3.468,0.028109248,0.050987219,0.045834960937499995,0.016171775,0.034515941
3.472,0.028109484,0.050986145,0.045831105,0.016171005,0.034513859
3.476,0.028109316406249998,0.050984336,0.045826648,0.016168691406249998,0.03451225
3.48,0.028109650390624998,0.050984031,0.045832449218749995,0.016168355,0.034512688
3.484,0.028109751953124998,0.050984703124999996,0.045836672,0.016168792,0.034513625
3.488,0.028109650390624998,0.050984234,0.045834191406249995,0.016168993,0.034515234374999995
3.492,0.028109584,0.050983227,0.045828925781249995,0.01616792,0.034515973
3.496,0.028109584,0.050980813,0.045824805,0.016166713,0.034514699
3.5,0.02810898,0.050979508,0.045830703,0.016167049,0.034515773
3.504,0.028109248,0.050979305,0.045834960937499995,0.016167049,0.034518386718749995
3.508,0.028109953,0.050979105,0.045832179687499995,0.016166948,0.034518453
3.512,0.028110154,0.05097793,0.045827886718749995,0.016166043,0.034516645
3.516,0.028109316406249998,0.050975515624999995,0.045824167968749996,0.016163763,0.034515539062499996
3.52,0.028109484,0.050975347656249996,0.045830035,0.016163125976562498,0.034515203
3.524,0.028109248,0.05097575,0.045832281249999995,0.016163528,0.034516578124999996
3.528,0.028109181640624998,0.050975852,0.045829965,0.016163796,0.034518957
3.532,0.028108813,0.050974176,0.045825742,0.016162757,0.034517648
3.536,0.028107941,0.050971793,0.045821886718749996,0.016160946,0.034515637
3.54,0.02810707,0.050971390624999995,0.045827988281249996,0.016159404,0.034516141
3.544,0.028106734374999998,0.050970922,0.045831945,0.016160108398437498,0.034518218749999996
3.548,0.028106801,0.050969883,0.045830035,0.016161114257812498,0.034519594
3.552,0.028106432,0.050967871,0.045826246093749995,0.016160577,0.034519023
3.556,0.02810623,0.050966063,0.045822691,0.016158967773437498,0.034517347656249996
3.56,0.028106767578124997,0.050966027,0.045826816,0.016158499023437498,0.034517148
3.564,0.028107002,0.050966094,0.045829262,0.016158499023437498,0.034517449218749996
3.568,0.028106869140624997,0.050965492187499996,0.045827148,0.016158599609374998,0.034519895
3.572,0.02810623,0.050964586,0.045823832,0.016158666,0.034521640624999995
3.576,0.028105963,0.05096291,0.04582125,0.016158733,0.034520836
3.58,0.028106332,0.050962238281249995,0.045826648,0.016157426,0.034520332031249996
3.584,0.028106164062499998,0.050962574,0.045829363,0.016156655,0.034520367
3.588,0.02810623,0.050962609374999995,0.045826914062499995,0.016156789,0.034522074
3.592,0.028105695312499998,0.050962441406249996,0.045823059,0.016156957,0.034523484374999996
3.596,0.028106164062499998,0.050961265624999995,0.045820277,0.016155951,0.034522879
3.6,0.028106332,0.050960429687499996,0.04582668,0.016155951,0.034525394531249996
3.604,0.028107035156249998,0.050960664,0.045830167968749995,0.016157393,0.034526164062499996
3.608,0.028106668,0.050960563,0.045827754,0.016158029296874998,0.034526133
3.612,0.028105762,0.050959926,0.045824301,0.01615689,0.034525664062499996
3.616,0.028105059,0.05095882,0.045821316,0.016155481445312498,0.034523953
3.62,0.028105461,0.050958382812499994,0.045826582,0.016154542968749998,0.03452382
3.624,0.028106164062499998,0.050958148437499996,0.045829999999999996,0.016154978515624998,0.034524152343749996
3.628,0.028106164062499998,0.050957645,0.045827855,0.016155649,0.034524824
3.632,0.028105225,0.050956203124999995,0.045823496,0.016155649,0.034523918
3.636,0.02810432,0.050954527,0.045820477,0.016155146,0.034523348
3.64,0.028103449,0.050953555,0.045826179687499996,0.016155481445312498,0.034525695
3.644,0.028102811,0.050953488,0.045829063,0.016156286,0.034527508
3.648,0.028102710937499997,0.050954460937499994,0.045827015624999995,0.016156487304687498,0.034529051
3.652,0.02810318,0.050954262,0.045823093749999995,0.016155045898437498,0.034527641
3.656,0.028102845703124997,0.050951543,0.045819137,0.016153135,0.034525328
3.66,0.028102945,0.050950707,0.045823964843749995,0.016152598,0.034524691406249995
3.664,0.028103716796874997,0.050950941,0.045826613,0.016152866,0.034525125
3.668,0.028104957,0.050950371093749995,0.045823059,0.016152396484374998,0.034525292968749996
3.672,0.028105092,0.050949031,0.04581823,0.016151692,0.034523684
3.676,0.02810308,0.050946684,0.045816121093749995,0.016150988,0.034523418
3.68,0.028102978515624998,0.050946179687499996,0.045822961,0.016152129,0.034525965
3.684,0.028104554687499998,0.050944301,0.045823863281249995,0.016152866,0.034529285
3.688,0.028105124999999998,0.050943398437499995,0.045819438,0.016152632,0.034529418
3.692,0.028104621093749997,0.050942223,0.045815582031249996,0.016151692,0.034526801
3.696,0.028104354,0.050939542968749994,0.045812566,0.016149881835937498,0.034524152343749996
3.7,0.028105092,0.050938703,0.045816824218749996,0.016148373,0.034522511718749996
3.704,0.028106064,0.050938835937499996,0.045818266,0.016146763671874998,0.034521004
3.708,0.028106599609374998,0.050938703,0.045814945,0.016146429,0.034520128906249996
3.712,0.028106398,0.050937699,0.045810117,0.016145322265624998,0.034517383
3.716,0.028106734374999998,0.050936691,0.045806531,0.016142976,0.034513961
3.72,0.028107404,0.050937261718749995,0.045811726562499995,0.016141902,0.034513359
3.724,0.028107169921874998,0.050937129,0.045814375,0.016142573,0.03451393
3.728,0.028106566,0.050935449,0.045812566,0.016142473,0.03451527
3.732,0.028106098,0.050933171874999995,0.045809582,0.016141132,0.034516141
3.736,0.028106164062499998,0.050931093749999996,0.045805594,0.016140394,0.03451527
3.74,0.028107002,0.050931058593749995,0.045809917968749995,0.016140595,0.03451527
3.744,0.028108076,0.050931261718749996,0.045812836,0.016140494,0.034516777
3.748,0.028108512,0.050930387,0.045809852,0.016140461,0.034517281
3.752,0.028107572,0.050928710937499996,0.045805523437499995,0.016139556,0.034515738
3.756,0.028107137,0.050926699218749996,0.045801836,0.016137544,0.03451423
3.76,0.028107605468749998,0.050926031249999996,0.045807636718749996,0.016136772,0.034515973
3.764,0.028107674,0.050926465,0.045810656,0.016137041,0.034518891
3.768,0.028108310546874998,0.050926602,0.045808878906249996,0.016137611,0.034518723
3.772,0.028108175781249998,0.050925492,0.045805023437499995,0.016136337,0.034517953
3.776,0.02810784,0.050923684,0.045801804687499996,0.016135063,0.034516578124999996
3.78,0.028107975,0.050923214843749995,0.045807066,0.016136002,0.034517113
3.784,0.028108143,0.050922777343749996,0.045809714843749995,0.016137275,0.034518922
3.788,0.028108143,0.050921636718749996,0.045807804687499995,0.016137812499999998,0.034520734
3.792,0.028107169921874998,0.050920164062499995,0.045804855468749996,0.016137376,0.034520801
3.796,0.028106701171874998,0.050917848,0.045801637,0.016136538,0.034520199
3.8,0.028107473,0.050916742187499996,0.045807035156249995,0.016136471,0.034520934
3.804,0.028108175781249998,0.050917613281249996,0.045809582,0.016136538,0.034522410156249995
3.808,0.028108242,0.050918988,0.045807402,0.016137174804687498,0.034522848
3.812,0.028107506,0.050919391,0.045803547,0.016136772,0.034521672
3.816,0.028107638671874997,0.050918117,0.045799992,0.016136035,0.034521738
3.82,0.028108175781249998,0.050918184,0.045805258,0.016136706054687498,0.034522945
3.824,0.028108076,0.050919156,0.045808309,0.016137309570312498,0.034524457
3.828,0.028108644531249997,0.050919594,0.045806195,0.016137645,0.034524691406249995
3.832,0.028108343749999997,0.050918586,0.045802172,0.016136639,0.034523785
3.836,0.028107674,0.050916640624999995,0.045798852,0.016135700195312498,0.034524188
3.84,0.028107605468749998,0.050916406,0.045804652343749995,0.016135935,0.034524758
3.844,0.02810784,0.050916711,0.045808141,0.016136471,0.034525496
3.848,0.028108512,0.050916140624999995,0.04580673,0.016136739257812498,0.034526938
3.852,0.028107874999999997,0.050914766,0.045802273,0.016135197265624998,0.034526098
3.856,0.028106632812499997,0.050913625,0.045799086,0.016133755859374998,0.034525094
3.86,0.028106098,0.050912820312499996,0.045806867187499996,0.016134594,0.034527371093749995
3.864,0.028106767578124997,0.050912484,0.04581032,0.016134929,0.034528379
3.868,0.028107674,0.050912285,0.045807301,0.016134795,0.034529453
3.872,0.028107807,0.050911379,0.045802543,0.016134258789062498,0.034528343749999996
3.876,0.028107874999999997,0.050909769531249996,0.045798852,0.016132247070312498,0.034526332031249996
3.88,0.028108813,0.050910437499999996,0.045804550781249995,0.016132146,0.034526668
3.884,0.028109449,0.050911176,0.045807703124999995,0.016132783,0.034527773
3.888,0.028109650390624998,0.050910539062499996,0.045804855468749996,0.016133085,0.034527843749999995
3.892,0.028109584,0.050908628906249996,0.045801133,0.016131644,0.03452734
3.896,0.028109082,0.05090759,0.045797715,0.016130067,0.034526433593749996
3.9,0.028109650390624998,0.05090816,0.04580234,0.016130336,0.034527675781249996
3.904,0.028110355468749997,0.050908593749999995,0.045803914,0.016131442,0.034528043
3.908,0.028110422,0.050907355,0.045800027,0.016131676757812498,0.034529617
3.912,0.028109919921874997,0.05090618,0.045797008,0.016131408,0.034530223
3.916,0.028109316406249998,0.050905008,0.045795902,0.016130437,0.034530391
3.92,0.028109584,0.050904773437499995,0.045802141,0.016130336,0.034532066
3.924,0.028109886718749998,0.050904973,0.045804789,0.016130503,0.034532703
3.928,0.028109919921874997,0.05090484,0.045801738,0.016130771,0.034533574
3.932,0.028109416,0.050903835937499996,0.045797645,0.016130269,0.034533543
3.936,0.028109214843749997,0.050902727,0.045794762,0.016129229,0.034533875
3.94,0.028109617187499998,0.050902395,0.04580016,0.016129833,0.034534043
3.944,0.028110088,0.050902425781249996,0.045803211,0.016130167968749998,0.034534648437499996
3.948,0.028110088,0.050903766,0.045801836,0.016131106445312498,0.034535922
3.952,0.02811002,0.050904137,0.04579825,0.016131106445312498,0.034533977
3.956,0.028109751953124998,0.050902492187499995,0.045794965,0.016130167968749998,0.034532703
3.96,0.028109416,0.050902125,0.045801367,0.01613057,0.034534516
3.964,0.028109484,0.050902395,0.045804051,0.016131509,0.034536761718749996
3.968,0.028110187499999998,0.050902492187499995,0.045801367,0.016131845,0.03453723
3.972,0.028109046874999998,0.050901387,0.045798652343749996,0.01613104,0.034536258
3.976,0.028107908,0.050899578,0.045796371093749996,0.016130167968749998,0.034535922
3.98,0.028108008,0.050899141,0.045802207,0.016130905,0.034537164
3.984,0.028108310546874998,0.050899578,0.045805792968749995,0.016132179687499998,0.034537969
3.988,0.028108713,0.050899477,0.045803414,0.016132783,0.034539105
3.992,0.028107338,0.050898805,0.045798316,0.016131945,0.034538102
3.996,0.028106098,0.050897867,0.045795667968749995,0.016130235351562498,0.034537429687499996
4,0.028106869140624997,0.05089723,0.045802105,0.016130235351562498,0.034538066
4.004,0.028107002,0.050897934,0.045804585937499996,0.016131308,0.034538336
4.008,0.028107002,0.050898738281249994,0.045802375,0.016131744140624998,0.034538839843749995
4.012,0.02810623,0.050898605,0.045798887,0.016130167968749998,0.034538738
4.016,0.02810499,0.050896961,0.045795566406249995,0.016128591796874998,0.034536761718749996
4.02,0.028104756,0.050896593749999997,0.045801433593749996,0.016128994,0.034537832
4.024,0.028105259765624998,0.050896793,0.045804016,0.016129899,0.034540148
4.028,0.028105963,0.050896289062499996,0.045802105,0.016129934,0.034541758
4.032,0.028105225,0.050896156,0.045798921874999995,0.016129263,0.034541355
4.036,0.028104554687499998,0.050895387,0.045797008,0.016128123046874998,0.034540617
4.04,0.028105359,0.050895789062499995,0.045802004,0.016128022,0.034540480468749996
4.044,0.028106164062499998,0.050896258,0.045804016,0.016128458,0.034541824218749996
4.048,0.028105561,0.050896691,0.045801535156249996,0.016127854,0.034542761718749995
4.052,0.028105393,0.050895652,0.045797511718749996,0.016127184,0.034541957
4.056,0.028105662,0.050893875,0.045793789,0.016126546874999998,0.03454102
4.06,0.028105795,0.050894012,0.045798988,0.016126043945312498,0.03454102
4.064,0.02810593,0.050894445312499995,0.045801402,0.016126379,0.034542461
4.068,0.028105695312499998,0.050894313,0.045798352,0.016126479492187498,0.03454427
4.072,0.028104689453124998,0.050892703,0.045795332,0.016126379,0.034544906
4.076,0.028102677734374998,0.050891363,0.045794425781249995,0.01612752,0.034545277
4.08,0.028101906,0.050892,0.045801535156249996,0.016129431,0.034546383
4.084,0.028100834,0.050892938,0.04580425,0.016130336,0.03454759
4.088,0.028099426,0.050892738281249995,0.045802543,0.016131006,0.03454893
4.092,0.028099291,0.050891297,0.045798652343749996,0.016130872,0.034548227
4.096,0.028099727,0.050889484374999995,0.045794796874999995,0.016129665039062498,0.034547152
4.1,0.028098922,0.050889652343749994,0.045800292968749996,0.016129665039062498,0.034547992
4.104,0.028098252,0.050891297,0.045803613281249995,0.01613057,0.034550137
4.108,0.028098789062499997,0.050891597656249996,0.045802141,0.016130805,0.034551746093749995
4.112,0.028099089843749998,0.050889652343749994,0.045798215,0.016129396,0.034551847656249995
4.116,0.028099594,0.050887004,0.045793656249999995,0.01612715,0.03455007
4.12,0.028100999999999998,0.050885828,0.045798316,0.016125742,0.034549332
4.124,0.028101570312499997,0.05088543,0.045800598,0.016125876,0.034548965
4.128,0.028101873,0.050884789,0.045798082,0.016126647,0.034549566406249996
4.132,0.028102242187499998,0.050884320312499995,0.045794563,0.016125709,0.034548996
4.136,0.028101873,0.050883550781249995,0.045791945,0.016124703,0.034548191
4.14,0.028101972656249998,0.050883617,0.045797410156249996,0.016124368,0.034549199
4.144,0.028102710937499997,0.050883719,0.045799324,0.016124569,0.034550238
4.148,0.028103615234374997,0.050883449218749995,0.045796105,0.016124066,0.034549133
4.152,0.028102375,0.050882308593749995,0.045792148,0.01612239,0.034548293
4.156,0.028101269531249997,0.050880934,0.045789566406249996,0.016121517578124998,0.034547757812499996
4.16,0.028102074,0.050881269531249995,0.045795734,0.016122289,0.034548191
4.164,0.028102710937499997,0.050882140624999996,0.045798617187499994,0.016123026367187498,0.0345495
4.168,0.028102477,0.050883347656249994,0.045797145,0.016123362,0.034550844
4.172,0.028102375,0.050883449218749995,0.045793457,0.016123529296874998,0.034550371
4.176,0.028102408,0.050882613281249996,0.045790371,0.016123697,0.034549535
4.18,0.02810251,0.050882375,0.045795769531249995,0.016124066,0.034549066406249995
4.184,0.028103011718749998,0.050882211,0.045798352,0.016123932,0.034549164
4.188,0.02810365,0.050882445312499996,0.045795434,0.016124133,0.034550441
4.192,0.028103348,0.050882645,0.045791914,0.016123898,0.034550473
4.196,0.028102375,0.050882074,0.045789801,0.016122792,0.034550371
4.2,0.028102107421874998,0.050881906,0.045795332,0.016122289,0.034551043
4.204,0.028101471,0.050882074,0.045798418,0.016122020507812498,0.034551847656249995
4.208,0.028100999999999998,0.050881875,0.045795667968749995,0.016122457,0.034553559
4.212,0.028100867,0.050880969,0.045791374999999995,0.01612249,0.034552148
4.216,0.028100230468749997,0.050879762,0.045789031,0.016121115,0.034549871
4.22,0.028100297,0.05087993,0.045795031,0.016120713,0.034549871
4.224,0.028101269531249997,0.050879960937499996,0.045797813,0.016121417,0.034551445
4.228,0.028101873,0.050880363,0.045795332,0.016121786,0.034553156
4.232,0.028101906,0.050879863,0.045790973,0.016121082,0.034552215
4.236,0.028101438,0.050878320312499996,0.045787254,0.016119305,0.034550238
4.24,0.028101336,0.050878188,0.045793218749999996,0.016118836,0.034552316
4.244,0.028101939,0.050878386718749995,0.045797410156249996,0.016119707,0.034552484
4.248,0.028101705078124997,0.050877949218749996,0.045795332,0.016121014648437498,0.034553793
4.252,0.028100867,0.050876742,0.045791141,0.016121048828124998,0.034555199
4.256,0.028100564453124997,0.050875672,0.045788293,0.016120177,0.034553960937499996
4.26,0.028101035,0.050875137,0.045794594,0.016120511718749998,0.034553793
4.264,0.02810184,0.050876441,0.045797847656249994,0.016120981445312498,0.034555031
4.268,0.028102309,0.050877414,0.045795230468749996,0.016120445,0.034555266
4.272,0.028102443,0.050876742,0.045791242,0.016119908203124998,0.034554766
4.276,0.028102041,0.050875371093749996,0.045788425781249996,0.016119339,0.034554730468749996
4.28,0.028102375,0.050874832,0.045794125,0.016119405273437498,0.03455557
4.284,0.028102777,0.050874496,0.04579607,0.016119339,0.034556441
4.288,0.028102744,0.050874128906249996,0.045793121,0.016119271,0.034556441
4.292,0.028102074,0.050872688,0.045788293,0.016118567,0.034554128906249995
4.296,0.028101639,0.050870809,0.045783496,0.016116857,0.034551746093749995
4.3,0.028101771,0.05087034,0.045787621,0.016116153,0.034551949218749996
4.304,0.028101873,0.050871379,0.045789266,0.01611565,0.034552316
4.308,0.028101604,0.050872051,0.045786348,0.016114980468749998,0.03455416
4.312,0.028101068,0.050870844,0.045781789062499995,0.016114041,0.034553757812499995
4.316,0.028100465,0.050867793,0.045777766,0.0161126,0.034552820312499996
4.32,0.028100799,0.050865512,0.045782258,0.016111124,0.034552016
4.324,0.028100699218749997,0.050864004,0.045784906,0.016110655,0.034552148
4.328,0.028100799,0.050862461,0.045782523,0.016111325195312498,0.034552785
4.332,0.028100598,0.050861691,0.045777664,0.016110118,0.034552184
4.336,0.028099960937499998,0.050860887,0.045774043,0.016108106,0.034551008
4.34,0.028100363,0.050860984374999994,0.045780480468749996,0.016108476,0.034552453
4.344,0.028100029,0.050860617,0.045783699,0.016108476,0.034553824
4.348,0.028100195,0.050859477,0.045779641,0.016107101,0.034554297
4.352,0.028100029,0.050858473,0.04577441,0.016105156,0.03455302
4.356,0.028098789062499997,0.050857062499999994,0.045770523437499995,0.016103245117187498,0.034551313
4.36,0.028098588,0.050856828124999996,0.045776055,0.01610291,0.03455198
4.364,0.028099023,0.050855921874999994,0.045779141,0.016103078,0.034553422
4.368,0.028099558593749997,0.050854078,0.045776558593749996,0.016102776,0.03455416
4.372,0.028099191406249998,0.050852941,0.045772133,0.016101167,0.034551847656249995
4.376,0.028098688,0.050851129,0.045767738,0.016100161,0.034549164
4.38,0.028099594,0.050850624999999997,0.045772734,0.016099825,0.034548832
4.384,0.028099525390624998,0.050850828,0.045775719,0.01609949,0.034551813
4.388,0.028099426,0.050851062499999995,0.045773941,0.016100396,0.034554328
4.392,0.028099291,0.050850527,0.04577059,0.016100429,0.034554999999999995
4.396,0.028098453,0.050848613281249996,0.045768207,0.016099523,0.034554363
4.4,0.028098621093749998,0.05084875,0.04577391,0.016099423,0.034556039
4.404,0.028099793,0.05084952,0.045776558593749996,0.016099926,0.03455607
4.408,0.028099324,0.050848445,0.045773641,0.016099591,0.034556609
4.412,0.028097783203124997,0.05084734,0.045769984374999996,0.016098215820312498,0.034556105
4.416,0.028097480468749998,0.050846133,0.045768175781249996,0.016097144,0.034555367
4.42,0.02809815,0.050845496,0.045774512,0.016096606445312498,0.034554664
4.424,0.028098519531249998,0.050844355,0.045776891,0.016096003,0.034553422
4.428,0.028098083984374998,0.050843718749999996,0.045774277343749996,0.016096103515624998,0.034553355
4.432,0.028097949218749998,0.05084298,0.045768848,0.016094997,0.034552586
4.436,0.028098955078124998,0.050842043,0.045765023437499996,0.016093824,0.034552617187499995
4.44,0.028100095703124998,0.050841273,0.045770188,0.016093455,0.034552285
4.444,0.028100264,0.0508405,0.045773004,0.016093656249999998,0.034551176
4.448,0.028099191406249998,0.050839496,0.045771394531249995,0.016094461,0.034554262
4.452,0.028097513671874998,0.050838054687499995,0.045767941,0.016094729492187498,0.034559625
4.456,0.028096777343749997,0.050836578,0.045765125,0.016094662109374998,0.034560765624999996
4.46,0.02809691,0.050836578,0.0457725,0.016095937,0.034560801
4.464,0.028097615234374998,0.050837449,0.045774914,0.016096305,0.034561203124999995
4.468,0.028098453,0.050837348,0.045770457031249996,0.016095198,0.03456157
4.472,0.028097748,0.05083527,0.045764824,0.016093656249999998,0.03455993
4.476,0.028097179687499998,0.050832890624999995,0.045760598,0.016091946,0.034557949
4.48,0.028097582,0.050832219,0.045765059,0.016092014,0.034558387
4.484,0.028097615234374998,0.050832758,0.045766836,0.01609198,0.034557949
4.488,0.028097480468749998,0.050832890624999995,0.045764621,0.016091846,0.034559223
4.492,0.02809634,0.050831749999999995,0.045760262,0.016091846,0.034558957
4.496,0.028095736,0.050829570312499996,0.045757078124999996,0.01609141,0.034557715
4.5,0.028095937499999998,0.050828566,0.045763449218749995,0.016092047,0.034559457
4.504,0.028095501953124997,0.050828465,0.045765996,0.016093389,0.03456184
4.508,0.028095436,0.050827527,0.045763179687499995,0.016093723632812498,0.034562675781249996
4.512,0.0280951,0.050825480468749996,0.045758418,0.016092517,0.034561035156249996
4.516,0.028095,0.05082357,0.045754898,0.016091075,0.034559426
4.52,0.02809567,0.050823265624999996,0.045760531,0.016090572,0.034559727
4.524,0.028096441,0.050823836,0.045763281249999996,0.016090271,0.034560867
4.528,0.028096105,0.050824141,0.045762140624999996,0.016090337,0.034561703124999996
4.532,0.028096173828124998,0.050823668,0.045758352,0.016089901,0.034560734
4.536,0.028095636718749997,0.050822531,0.045754664,0.016089265,0.034559289
4.54,0.028095167968749998,0.050821792968749994,0.045759859374999996,0.016090203,0.034560129
4.544,0.028095,0.050820855468749995,0.045762308593749995,0.016091041015624998,0.034561035156249996
4.548,0.028095402,0.050819914,0.045758855,0.016091276,0.034561738
4.552,0.028095771484374997,0.050818675781249996,0.045753222656249995,0.016090605468749998,0.034561136718749996
4.556,0.028095937499999998,0.050817098,0.045750508,0.016089801,0.034559894531249996
4.56,0.028096576,0.050816664062499996,0.045757582,0.016090035156249998,0.034559960937499995
4.564,0.028097279,0.050817433593749996,0.045760230468749996,0.016090035156249998,0.034560734
4.568,0.028097145,0.050816996,0.045757078124999996,0.01609255,0.034561066
4.572,0.028096408,0.050814582,0.045751578,0.01609654,0.034560363
4.576,0.028095436,0.050811969,0.045747890624999996,0.016099558,0.034560465
4.58,0.028095904296874998,0.050811230468749996,0.045753254,0.016102273,0.034559391
4.584,0.028096006,0.05080952,0.045754766,0.016104117,0.034560332
4.588,0.028095973,0.050808215,0.045751547,0.016105559,0.034563714843749996
4.592,0.028095369,0.050806871,0.045747957031249994,0.016106062,0.034563214843749995
4.596,0.028094898437499998,0.050804961,0.045745777343749995,0.016106497,0.034561301
4.6,0.028094529,0.050804996,0.045752015624999996,0.016108307617187498,0.034562645
4.604,0.028094865,0.050805464843749995,0.045755,0.016109515,0.034564254
4.608,0.028095268,0.050805496,0.045752418,0.016110521,0.034565695
4.612,0.028094832,0.050804191,0.045748863281249996,0.016110889648437498,0.034564922
4.616,0.028094396,0.050802480468749994,0.045745777343749995,0.016110789,0.03456402
4.62,0.028095234,0.050802515624999996,0.045752117,0.016111762,0.034564723
4.624,0.028096006,0.050802949,0.04575577,0.016112833984374998,0.034565359
4.628,0.028096273,0.050802246093749996,0.045752887,0.016113236,0.034565797
4.632,0.028095234,0.050800738,0.045746851562499996,0.016112298,0.034563046874999996
4.636,0.028094529,0.050799129,0.045742324,0.016110822265624998,0.034560699
4.64,0.028095066406249997,0.050799063,0.045747758,0.016111023,0.034560734
4.644,0.028094630859374997,0.050799464843749996,0.045750203,0.01611213,0.034562207
4.648,0.028094832,0.050798691,0.045747890624999996,0.016112398437499998,0.034563078
4.652,0.028095501953124997,0.050797785,0.045743699218749996,0.016112398437499998,0.03456157
4.656,0.028095,0.050796109374999995,0.045740414,0.016111728,0.034560195
4.66,0.028094931640624998,0.050795371,0.045746215,0.016111962890624998,0.03456023
4.664,0.028095167968749998,0.050794800781249996,0.045748191,0.016112265,0.034560332
4.668,0.028094898437499998,0.050794265624999994,0.045745277343749995,0.016113271,0.034561703124999996
4.672,0.028094195,0.050792859,0.045741555,0.016113271,0.034561539
4.676,0.028093793,0.050791785,0.045739375,0.016113002,0.03456127
4.68,0.028093793,0.050792019531249996,0.045746383,0.016114008,0.034562777
4.684,0.028093558593749998,0.050792055,0.045748293,0.016115381835937498,0.034564855468749996
4.688,0.028093624999999997,0.050791449,0.045745375,0.016116354,0.034565594
4.692,0.028093357,0.050791082,0.045740313,0.01611555,0.034564422
4.696,0.028093658,0.050789977,0.045736691406249995,0.016113572,0.03456375
4.7,0.028094328124999998,0.050789238281249996,0.045741988,0.016114108,0.034563984374999995
4.704,0.028094630859374997,0.050788734,0.045744504,0.016115482,0.03456402
4.708,0.028094630859374997,0.050789203124999995,0.045743129,0.016116488,0.034561136718749996
4.712,0.028094127,0.050789004,0.045739843749999995,0.016117025390624998,0.034560598
4.716,0.028093591796874998,0.050786891,0.045736223,0.016116757,0.034565559
4.72,0.028093826,0.050785816406249996,0.045741753906249995,0.016117126,0.034568878906249996
4.724,0.028093826,0.050785516,0.045745375,0.016118466796874998,0.034570789062499996
4.728,0.028093892578124998,0.050785148,0.045743968749999996,0.016120177,0.034573977
4.732,0.028092484374999997,0.050784945312499996,0.04574132,0.016121686,0.034576895
4.736,0.028091814,0.050784074218749996,0.045738938,0.016122222,0.034578738
4.74,0.028092652,0.05078384,0.045745043,0.016123228,0.034580379
4.744,0.028092988,0.050784175781249996,0.045747355,0.016123898,0.03458018
4.748,0.028093189,0.050783773,0.045743734,0.016124904,0.034580883
4.752,0.028093391,0.050782128906249994,0.045738906249999996,0.016124636,0.034580078
4.756,0.028092919921874997,0.050780723,0.045736391,0.016123396,0.034579844
4.76,0.028093088,0.050780320312499995,0.045743699218749996,0.016124502,0.034581723
4.764,0.028093256,0.050780723,0.045746082031249996,0.016126077,0.03458343
4.768,0.028093558593749998,0.050781691406249996,0.04574266,0.016126546874999998,0.034583934
4.772,0.028093156249999997,0.050781492,0.045738336,0.016126346,0.034583398437499996
4.776,0.028092585937499998,0.05078025,0.045735453,0.016125843,0.034582457
4.78,0.028093223,0.050779847656249995,0.045740852,0.016126379,0.034582793
4.784,0.028093256,0.050780050781249995,0.045743297,0.016126748,0.034583867
4.788,0.028093391,0.050780117187499994,0.045740582,0.016126916,0.034584
4.792,0.028093424,0.050779379,0.045736492,0.01612581,0.034582793
4.796,0.028092787,0.050777602,0.045734043,0.016124569,0.03458182
4.8,0.028092652,0.050777167968749995,0.04574075,0.016124871,0.034582257812499996
4.804,0.028092719,0.050777031,0.045743699218749996,0.016124938,0.03458343
4.808,0.028092787,0.050776395,0.045740714843749995,0.016124368,0.034583496
4.812,0.028091646,0.050775824218749994,0.045735219,0.016124133,0.034582425781249995
4.816,0.028091412,0.050774754,0.045731059,0.016123865,0.03458323
4.82,0.028092418,0.050774785156249995,0.045736391,0.016124636,0.034584539062499996
4.824,0.028092585937499998,0.050774484,0.045738738281249997,0.016125172851562498,0.034586047
4.828,0.02809282,0.050773246093749995,0.045736594,0.016126011,0.034586852
4.832,0.028092316406249998,0.050771332,0.045732433593749997,0.016125206,0.034585844
4.836,0.028092048828124997,0.050770328,0.045729785,0.016124066,0.034584
4.84,0.028092115,0.050770796874999996,0.045736324,0.016125038085937498,0.034584703
4.844,0.028091982421874998,0.05077207,0.045739878906249996,0.016126446,0.034587285
4.848,0.028091982421874998,0.050772371,0.045738234,0.016128357,0.034588863
4.852,0.028091613,0.050770964843749995,0.045734679687499995,0.016128189,0.034588191406249996
4.856,0.028091043,0.05076882,0.045731363,0.016127585937499998,0.034588293
4.86,0.028091310546874998,0.050768683593749996,0.045737801,0.016127988,0.034590438
4.864,0.028092217,0.050768886718749996,0.045739878906249996,0.01612876,0.034591848
4.868,0.028092316406249998,0.050769054687499995,0.045737699,0.016129094726562498,0.03459332
4.872,0.028091412,0.050767945,0.045733945312499996,0.016128257,0.034592887
4.876,0.028091244,0.050766137,0.045730492,0.016127687,0.034590906
4.88,0.028092184,0.050766305,0.045736289,0.016128088867187498,0.034591074
4.884,0.028093391,0.050766539,0.04573857,0.016128123046874998,0.034591543
4.888,0.028094027343749998,0.050766305,0.045735285,0.016127888,0.034592551
4.892,0.028093391,0.05076523,0.045730625,0.016126781,0.03459168
4.896,0.028092854,0.050762816406249994,0.045727742187499996,0.016125608398437498,0.034590269531249995
4.9,0.028093391,0.050761844,0.045733305,0.016125072,0.034591140624999996
4.904,0.028093826,0.050761105,0.045736055,0.016124871,0.034592148
4.908,0.028093523,0.050760168,0.045734277,0.016125876,0.034593992
4.912,0.028092988,0.050759566,0.045731262,0.016125608398437498,0.034593824
4.916,0.028092619,0.050757922,0.045728109,0.016124066,0.034592484374999996
4.92,0.028092754,0.050757890624999996,0.045733609,0.01612373,0.034592516
4.924,0.028092919921874997,0.050758426,0.045735988,0.016124502,0.034593723
4.928,0.028093925781249997,0.050758660156249996,0.045733472656249996,0.016124636,0.034594695
4.932,0.028094195,0.050757855468749995,0.045730589843749996,0.016123932,0.034593723
4.936,0.028093391,0.050757352,0.045727910156249996,0.016123194,0.034591813
4.94,0.028092955,0.05075732,0.045734445,0.016123697,0.03459282
4.944,0.028092988,0.050757555,0.045737633,0.016124703,0.034594527
4.948,0.028093391,0.050758324,0.045735050781249995,0.016124703,0.034595836
4.952,0.028092719,0.050757417968749996,0.045730727,0.016123396,0.034595566
4.956,0.028091244,0.050756043,0.04572784,0.01612249,0.034595433593749995
4.96,0.028091144531249997,0.050756516,0.045734211,0.016123060546874998,0.034596507812499996
4.964,0.028091781,0.05075725,0.04573723,0.016124435,0.034597379
4.968,0.028092484374999997,0.050757219,0.045734648,0.016125005,0.034599187499999996
4.972,0.028091982421874998,0.050757152,0.045730589843749996,0.016123865,0.034599355468749995
4.976,0.028091379,0.050755977,0.045728679687499996,0.016122624,0.034598953
4.98,0.028091546874999998,0.050756145,0.045735316,0.01612363,0.034599961
4.984,0.028091310546874998,0.050757285,0.045738035156249995,0.016125105468749998,0.034600297
4.988,0.028091076,0.050756984374999994,0.045735855468749996,0.01612581,0.034600934
4.992,0.028090238,0.050755977,0.045732066,0.016124569,0.034600863
4.996,0.028089166,0.050754402,0.045728781249999996,0.016123228,0.034600363
5,0.028089467,0.050754672,0.045734914,0.016122859,0.034600965
5.004,0.028090707,0.050754636718749996,0.045737531,0.016123194,0.034601871
5.008,0.028091346,0.050754234,0.045735316,0.016123362,0.034603313
5.012,0.028090742,0.050752691406249995,0.045730691406249996,0.016121887,0.034602207
5.016,0.028090742,0.050750511718749995,0.045727875,0.016120378,0.034599824
5.02,0.028091009765624998,0.050749004,0.045734145,0.016119339,0.034599422
5.024,0.028090908203124997,0.050749172,0.045736594,0.016119707,0.034600797
5.028,0.028091043,0.050750008,0.045734313,0.016120612,0.034602641
5.032,0.028090373,0.050748332031249996,0.045729688,0.016120277,0.034602844
5.036,0.028089635,0.050746421874999996,0.045726871093749996,0.016119238,0.034601973
5.04,0.028090304687499998,0.05074602,0.045733273,0.016119003,0.034602238281249996
5.044,0.028090874999999998,0.05074602,0.045734816406249997,0.016118434,0.034603145
5.048,0.028091043,0.050746824,0.045732098,0.016118869,0.034605895
5.052,0.028091076,0.050747262,0.045728344,0.016118366,0.034605324
5.056,0.028091379,0.050746757812499994,0.045724925781249995,0.016117159,0.034602207
5.06,0.028092518,0.050746992,0.045729184,0.016117126,0.034602207
5.064,0.028093357,0.050746859374999995,0.045730926,0.01611736,0.034603883
5.068,0.028093558593749998,0.050745484,0.045728008,0.016116991,0.034604789062499995
5.072,0.028092518,0.050743640624999996,0.045724254,0.016116724,0.03460318
5.076,0.028091748,0.050741695312499994,0.045722711,0.016115952148437498,0.034600429687499996
5.08,0.028091379,0.050740992,0.045728277,0.016115482,0.034601668
5.084,0.028091412,0.050741227,0.04573002,0.01611565,0.034602742
5.088,0.028091546874999998,0.050741460937499996,0.045727035,0.016115985,0.034602844
5.092,0.028091914062499997,0.050741257812499996,0.045722746093749995,0.016114913085937498,0.034602309
5.096,0.028091546874999998,0.050739281,0.045720031,0.01611317,0.034601938
5.1,0.028091144531249997,0.050739012,0.045727875,0.016114075,0.034604957
5.104,0.028091748,0.050739683593749994,0.045731598,0.016115181,0.034607468749999995
5.108,0.028091512,0.050739347656249996,0.045729047,0.01611555,0.034607637
5.112,0.028091144531249997,0.050738542968749994,0.045724488281249996,0.016114846,0.034606398
5.116,0.028091379,0.050737672,0.045721203,0.016114176,0.034605660156249995
5.12,0.028092484374999997,0.050738344,0.045727508,0.016114343,0.034605727
5.124,0.028092886718749998,0.050738242,0.045730421874999996,0.016114410156249998,0.034605895
5.128,0.028093054687499997,0.050737503906249995,0.045728176,0.016114980468749998,0.034604152
5.132,0.028093088,0.050736164,0.045723886718749995,0.016114008,0.034600863
5.136,0.02809282,0.050734183593749996,0.045718957,0.016111962890624998,0.034601836
5.14,0.028092418,0.050733613,0.045724824218749995,0.016112298,0.034603715
5.144,0.028091848,0.050733012,0.04572784,0.016113002,0.034604957
5.148,0.028091814,0.050732977,0.045726301,0.016113505,0.034606496
5.152,0.028092115,0.05073291,0.045722476562499996,0.016113304,0.034605492187499996
5.156,0.02809225,0.050731805,0.04571909,0.016112633,0.034606531249999996
5.16,0.028092886718749998,0.050731973,0.045725293,0.016112633,0.034607906
5.164,0.028093322265624998,0.050733348,0.045728715,0.016113471679687498,0.034608339843749995
5.168,0.028093021484374998,0.050733683593749995,0.045726602,0.01611384,0.034610086
5.172,0.028091982421874998,0.050733113,0.045722945,0.016113471679687498,0.034610621093749995
5.176,0.028089701,0.050732374999999996,0.045720434,0.016112733,0.034610656249999996
5.18,0.02808635,0.050733113,0.045727742187499996,0.016114142,0.03461327
5.184,0.028083332031249998,0.050734554687499996,0.045731363,0.016115684,0.034617059
5.188,0.028082929687499997,0.050736195312499996,0.045729754,0.016117695,0.034618734
5.192,0.028082426,0.050735625,0.04572593,0.016118299,0.034621215
5.196,0.028081254,0.050734016,0.045723383,0.016117763,0.034621449218749996
5.2,0.028081185546874998,0.050733582031249995,0.045730289,0.016118165,0.034621383
5.204,0.02807951,0.050733848,0.04573448,0.016118769,0.034624066
5.208,0.028077934,0.05073432,0.04573307,0.016119741,0.034626348
5.212,0.028076627,0.050734688,0.045731460937499996,0.016120747,0.034626414
5.216,0.028075386718749998,0.050734152,0.045731460937499996,0.016121686,0.034626348
5.22,0.02807723,0.050734219,0.045735957031249996,0.016120813,0.034625207
5.224,0.028078873046874998,0.050733683593749995,0.045735719,0.016119339,0.034623227
5.228,0.028079242,0.05073291,0.045732703124999996,0.016119540039062498,0.034623328
5.232,0.028079074,0.050731503906249996,0.045728008,0.016119104,0.034621418
5.236,0.028079408,0.050730328124999995,0.045723785156249995,0.016117159,0.034617293
5.24,0.028079375,0.050729758,0.045728949218749995,0.016116354,0.034616188
5.244,0.028079476562499997,0.050729390624999995,0.045730121,0.016116019531249998,0.034616386718749996
5.248,0.028079408,0.050728351562499996,0.045726266,0.016114745,0.034615082
5.252,0.028078068,0.050726742,0.045721641,0.01611317,0.034612129
5.256,0.02807723,0.050725066,0.045717414062499996,0.016111694,0.034610891
5.26,0.028077029,0.050724429687499996,0.045722813,0.016111694,0.034612098
5.264,0.028077197,0.050724929687499996,0.045725359374999996,0.016112298,0.034613371
5.268,0.028076895,0.050725133,0.045723215,0.0161127,0.034613335937499996
5.272,0.028076057,0.050724094,0.045718519531249995,0.016111426,0.034610922
5.276,0.028075285156249997,0.050722684,0.04571527,0.016109515,0.034608777
5.28,0.028076156249999998,0.050722249999999997,0.045721203,0.016109615,0.034609047
5.284,0.028076828124999998,0.050721746,0.045723551,0.016109783,0.03460918
5.288,0.028076459,0.05072084,0.045719961,0.01610928,0.034609281
5.292,0.028075990234374997,0.050718996093749996,0.045714531249999996,0.016107604,0.034607402343749996
5.296,0.028076057,0.050717253906249996,0.045710574,0.016105525,0.034606094
5.3,0.028076225,0.050716316406249996,0.045715637,0.016104988,0.034606632812499996
5.304,0.028076324218749997,0.050715777,0.045717281,0.016103748046874998,0.034607
5.308,0.028076123,0.050714773,0.045714566,0.016102876953124998,0.034608477
5.312,0.028075285156249997,0.050712324,0.045709668,0.016100597,0.034606734374999996
5.316,0.028074582,0.050709140624999996,0.045705242187499995,0.016097713,0.034603582031249996
5.32,0.028075084,0.050708469,0.045709468749999996,0.016096473,0.034603012
5.324,0.028075553,0.050707898437499996,0.045711043,0.016096641,0.034604219
5.328,0.028076225,0.050706355,0.04570709,0.016097378,0.034605125
5.332,0.028075889,0.05070307,0.045701421874999995,0.016096305,0.034604285
5.336,0.028075219,0.050699918,0.045697601562499995,0.016095064,0.034602676
5.34,0.028075553,0.050699586,0.04570273,0.016095467,0.034603414
5.344,0.028075822265624998,0.05069982,0.045705145,0.016096405,0.034603648437499995
5.348,0.028075855468749997,0.050699418,0.045702762,0.016096875,0.034602543
5.352,0.028075051,0.050698141,0.045699109,0.016096405,0.034601102
5.356,0.028074547,0.050696699218749995,0.045696257812499995,0.016095232421874998,0.034600699218749996
5.36,0.028074714843749998,0.050695563,0.045702094,0.01609436,0.034603145
5.364,0.028074714843749998,0.050695058593749995,0.045703938,0.016094394,0.034604417968749995
5.368,0.028074615,0.050694855,0.045701289,0.016093892,0.034604789062499995
5.372,0.028074012,0.050693414,0.045697566,0.016093053,0.034604219
5.376,0.028073441,0.050691,0.045694012,0.016091678710937498,0.034603078
5.38,0.02807418,0.050689695,0.045699242187499996,0.016091175781249998,0.034602473
5.384,0.028075251953124998,0.050689527,0.045701523437499995,0.01609084,0.034603546874999995
5.388,0.028075822265624998,0.050688652343749994,0.045698438,0.01609084,0.034605125
5.392,0.028075822265624998,0.050686809,0.045693308593749996,0.016089935,0.034604152
5.396,0.028075051,0.050684297,0.04568952,0.016087957,0.034603113
5.4,0.028075150390624998,0.05068423,0.045695855,0.016088158203124998,0.03460509
5.404,0.028075654,0.050684898,0.045698972656249996,0.016088862,0.03460727
5.408,0.028076123,0.050683992,0.045696828,0.016088259,0.03460784
5.412,0.028075855468749997,0.050682285,0.045693609,0.016087454,0.034606566
5.416,0.028075352,0.050680773,0.045690793,0.016086649414062498,0.034605492187499996
5.42,0.028075889,0.050680305,0.045696359374999995,0.016085979,0.034604988
5.424,0.028076759765624997,0.050680539062499995,0.045698167968749995,0.016085644,0.034604621093749996
5.428,0.028077531,0.050680039062499994,0.04569448,0.016085342,0.034604887
5.432,0.028077029,0.050678664062499997,0.045689484,0.016083531249999998,0.034602507812499995
5.436,0.028076627,0.050677254,0.045685863281249996,0.016080983,0.034598285
5.44,0.028077129,0.050676515624999995,0.045691398437499996,0.016080111,0.034595902
5.444,0.028077465,0.050675613,0.045693844,0.016079776,0.034596574218749995
5.448,0.028077564,0.05067484,0.04569173,0.016079978,0.034598417968749996
5.452,0.028076627,0.050673499999999996,0.045687273437499995,0.016078904,0.034598922
5.456,0.028076156249999998,0.050670883,0.045684121093749995,0.01607773,0.03459882
5.46,0.028076627,0.050670047,0.045690523,0.016077999023437498,0.034600195
5.464,0.028077431640624997,0.050669609,0.045692301,0.016078603,0.034601367187499996
5.468,0.028077867187499998,0.050669879,0.045689015624999996,0.016078501953124998,0.034601973
5.472,0.028077765624999997,0.050669644531249995,0.04568382,0.016077194,0.034600898
5.476,0.028077063,0.050668305,0.045680734,0.01607525,0.034599523
5.48,0.028077029,0.050667632812499995,0.045686703,0.016075786,0.034599961
5.484,0.028077063,0.050667129,0.045688715,0.01607649,0.034600699218749996
5.488,0.028077398437499998,0.050666793,0.045685863281249996,0.016076892578124998,0.034601602
5.492,0.028078167968749998,0.050665855,0.045681875,0.01607649,0.034601265624999995
5.496,0.028078035,0.050664348,0.045679094,0.016075552,0.034601938
5.5,0.028077330078124997,0.050663542968749996,0.045684992187499995,0.016076088,0.034602977
5.504,0.02807827,0.050663171874999996,0.045687711,0.01607649,0.034602977
5.508,0.028078906249999997,0.050662871,0.045684656,0.016076289,0.034602945
5.512,0.028078672,0.050662,0.045679261718749996,0.016075383789062498,0.034600766
5.516,0.028078035,0.05066059,0.045675371,0.016073674,0.034599523
5.52,0.028078738281249998,0.050659585937499994,0.045680800781249996,0.016073339,0.034601168
5.524,0.028079678,0.050659383,0.045682980468749995,0.016073874999999998,0.034601871
5.528,0.028080248,0.050659051,0.045681305,0.016073842,0.034603113
5.532,0.028079945,0.050657809,0.045678656,0.016073874999999998,0.034603313
5.536,0.028079846,0.050656836,0.045676543,0.016073506,0.034601602
5.54,0.028080314453124998,0.050656301,0.045682007812499995,0.016073037,0.034601
5.544,0.028080884765624998,0.050655563,0.045683754,0.016072902,0.03460177
5.548,0.028080852,0.05065516,0.045681105,0.016073104,0.034602977
5.552,0.028079141,0.050653652,0.045678219,0.016073003,0.034601402
5.556,0.028077833984374998,0.050651504,0.045676277343749995,0.016072801757812498,0.034601504
5.56,0.028078906249999997,0.050652613281249995,0.045682242,0.016073204,0.034603211
5.564,0.028079375,0.050653551,0.045685496,0.016073842,0.034603378906249996
5.568,0.028079645,0.050653551,0.045683785,0.016074345,0.034604922
5.572,0.02807951,0.05065325,0.045680398,0.016073807617187498,0.034604652
5.576,0.028078939,0.050651136718749996,0.045678187499999995,0.016072433593749998,0.034601636718749995
5.58,0.028078973,0.050649965,0.045683586,0.016072266,0.034600262
5.584,0.028079173828124998,0.050650230468749995,0.045685195312499996,0.016071897460937498,0.034601234
5.588,0.028079846,0.050649695,0.045682078,0.016072064,0.034602172
5.592,0.028080482421874997,0.050648688,0.045677785,0.016071093,0.034601031
5.596,0.028080549,0.050646176,0.045675102,0.016069818359374998,0.034600597656249996
5.6,0.028081185546874998,0.050644499999999995,0.045680968749999995,0.016069718,0.034602309
5.604,0.028081320312499998,0.050645437499999994,0.045684422,0.016070925,0.034604555
5.608,0.028081152,0.050645402,0.045682312499999995,0.016070992,0.034605527
5.612,0.028080549,0.050644465,0.045678387,0.016069818359374998,0.03460432
5.616,0.028080482421874997,0.050643156249999995,0.045675707,0.016068008,0.034603715
5.62,0.028080984,0.050642555,0.045681676,0.016067472,0.034605125
5.624,0.028080917968749997,0.050642555,0.045683754,0.016067371093749998,0.034606195
5.628,0.028080516,0.050641949218749996,0.045681539,0.016067572,0.034607300781249996
5.632,0.028080212890624998,0.050640879,0.045677316406249995,0.016067136,0.034606766
5.636,0.028079645,0.050639805,0.045672957031249996,0.016065291992187498,0.034604957
5.64,0.028079678,0.050640207031249995,0.045678691,0.016064655,0.034604519531249996
5.644,0.028080179687499998,0.050640645,0.045681839843749995,0.016065694,0.034605961
5.648,0.028080684,0.050640039062499996,0.045679797,0.016066197,0.034606398
5.652,0.028080314453124998,0.050639637,0.045676242,0.016065727539062498,0.03460623
5.656,0.028080012,0.050637961,0.045672085937499995,0.016065224609374998,0.034607438
5.66,0.02808008,0.050637222656249994,0.045676848,0.01606546,0.034609785156249996
5.664,0.028079846,0.050637188,0.045679160156249995,0.016065561,0.034610086
5.668,0.028079678,0.050637054687499995,0.045677316406249995,0.01606546,0.034610188
5.672,0.028079308593749998,0.050635379,0.045672891,0.016064354,0.034610086
5.676,0.028078738281249998,0.050633668,0.045669504,0.016062709960937498,0.034608578
5.68,0.028078973,0.050634441,0.045674933593749995,0.016063851,0.034609414062499996
5.684,0.028079308593749998,0.050635012,0.045677348,0.01606489,0.034611023
5.688,0.028080012,0.050634207031249996,0.045674531,0.016064621,0.034611727
5.692,0.028079341796874997,0.050632195312499996,0.045670375,0.016062811,0.034611023
5.696,0.028078738281249998,0.050630683593749996,0.045666820312499995,0.016060363,0.034610387
5.7,0.028079408,0.050630652,0.04567175,0.016059324,0.034610422
5.704,0.028080179687499998,0.050630586,0.045673929687499996,0.016059022,0.034611359
5.708,0.028080314453124998,0.050630652,0.045672352,0.01605976,0.034613102
5.712,0.028079173828124998,0.050629176,0.04566823,0.016060498,0.034612766
5.716,0.028078302734374998,0.050627297,0.045665379,0.016060263,0.03461307
5.72,0.028078404296874998,0.050627063,0.045671281,0.016060229492187498,0.034614613
5.724,0.028078973,0.050626125,0.045672253906249995,0.01605909,0.034615347656249996
5.728,0.028079846,0.050624953,0.045668164062499995,0.016057949,0.034614008
5.732,0.028079846,0.050623477,0.045662863,0.016056475,0.034612266
5.736,0.028079443359374998,0.05062143,0.045659277,0.016054463,0.034611258
5.74,0.028079308593749998,0.050621597656249996,0.045666082,0.016053893,0.034612464843749996
5.744,0.028079408,0.050622707,0.045669371,0.016053825,0.034614644531249995
5.748,0.028079576,0.050622738281249996,0.045667191406249995,0.016054697,0.034614277
5.752,0.028078504,0.050621664062499995,0.045663168,0.016054865,0.034613707031249996
5.756,0.028078236,0.050620762,0.045661391,0.016053859,0.03461384
5.76,0.028079242,0.050621933593749995,0.045668062499999995,0.016055233,0.034615113
5.764,0.028079341796874997,0.050623273,0.045671246,0.016057748,0.034617527343749996
5.768,0.028079979,0.050623945312499995,0.045670105,0.01605909,0.034619539062499996
5.772,0.028079979,0.050622738281249996,0.045666418,0.016058821,0.034618199
5.776,0.028079308593749998,0.050621265624999995,0.045663703124999996,0.016057111,0.034616625
5.78,0.028079275,0.050620929687499996,0.045669371,0.016056575,0.034616891
5.784,0.028079777343749997,0.050620863,0.045671348,0.016056877,0.034617496
5.788,0.028079878906249998,0.050620996093749995,0.045668898,0.016057714843749998,0.034618633
5.792,0.028079443359374998,0.050620426,0.045665816,0.016057581,0.034618566406249995
5.796,0.028079576,0.050619016,0.045664172,0.016056407,0.034618066
5.8,0.028080281,0.050618613281249995,0.045670843749999995,0.016056575,0.034618535
5.804,0.028080684,0.050619253906249995,0.045673492,0.016057178710937498,0.034620547
5.808,0.028080684,0.050619723,0.04567118,0.01605852,0.034622992
5.812,0.028080516,0.050619016,0.045666586,0.016057849,0.034621047
5.816,0.028081018,0.050617508,0.045663266,0.016055837,0.034619105
5.82,0.028080482421874997,0.050616738,0.045669234,0.0160552,0.034620344
5.824,0.028079308593749998,0.050616804687499996,0.045673527,0.016055703,0.034623496
5.828,0.028079173828124998,0.050617809,0.045672891,0.016056072,0.03462618
5.832,0.028079811,0.050617441,0.045669906249999996,0.016055469,0.034624504
5.836,0.028080047,0.050616301,0.045667624999999996,0.016054966,0.034622156
5.84,0.028078906249999997,0.050616601562499995,0.045673863,0.016056708984374998,0.034622324
5.844,0.028078839843749998,0.050616938,0.045677348,0.016058352,0.034623699
5.848,0.028079173828124998,0.050616504,0.045675906249999995,0.016058788085937498,0.034625105
5.852,0.028078738281249998,0.050615094,0.04567202,0.016058352,0.034625238
5.856,0.028077699,0.050612914,0.045667559,0.01605748,0.034623496
5.86,0.028077398437499998,0.050612145,0.045672922,0.016058084,0.034624434
5.864,0.028077564,0.050612445,0.045676645,0.016058486,0.034624402
5.868,0.028077666,0.050612379,0.045674531,0.016058285156249998,0.034625004
5.872,0.028076828124999998,0.050611238,0.045670207,0.016057313,0.034624535
5.876,0.028076057,0.050609059,0.045666789,0.016055334,0.034623699
5.88,0.028076759765624997,0.050607484,0.04567202,0.016054093749999998,0.034623363
5.884,0.028077833984374998,0.050607047,0.045673426,0.016053121,0.034623395
5.888,0.028077934,0.050606781249999996,0.045670578,0.016052283,0.034625406
5.892,0.028076828124999998,0.050606613,0.045667258,0.016051445,0.03462675
5.896,0.028075318,0.050606043,0.045665918,0.01605168,0.034627051
5.9,0.028075318,0.050606176,0.045673156,0.01605349,0.034628289
5.904,0.028075150390624998,0.050606679687499996,0.045676007812499995,0.016055301,0.034629699
5.908,0.028075018,0.050607047,0.045673762,0.016055535,0.034632012
5.912,0.028074783,0.050606445,0.045670039,0.016054496,0.034631711
5.916,0.028073877,0.050605437499999996,0.045667289,0.016053322,0.034630168
5.92,0.028072436,0.050606008,0.045674199218749996,0.016053624,0.034630938
5.924,0.028071865,0.050607418,0.045678121093749996,0.016054161132812498,0.034633219
5.928,0.028071363281249997,0.050608223,0.045675875,0.0160552,0.034635031
5.932,0.028070625,0.050607953,0.04567232,0.016055569,0.034634226562499995
5.936,0.028069854,0.050607015624999994,0.045670645,0.016055904,0.034633422
5.94,0.028068982,0.050606949218749996,0.045677749999999996,0.016057078,0.034635566
5.944,0.028066904,0.050607215,0.045681809,0.01605919,0.034638082031249996
5.948,0.028065428,0.050607785156249994,0.045680367,0.016060498,0.034640664
5.952,0.028064589843749998,0.050607852,0.045676109374999996,0.016060464,0.034640160156249995
5.956,0.028064052734374997,0.050607015624999994,0.045673894531249995,0.016060196,0.034637578
5.96,0.028064389,0.050607418,0.045679898,0.016061034,0.034637477
5.964,0.028064221,0.050608559,0.045681977,0.016061504,0.034638582
5.968,0.02806365,0.050608355,0.045679058593749995,0.016062007,0.034640461
5.972,0.028062881,0.050608523,0.045674933593749995,0.016061034,0.034640929687499995
5.976,0.028061875,0.05060802,0.045673124999999995,0.016061202,0.034641836
5.98,0.028061673828124998,0.050608457,0.045680132812499996,0.016062208,0.034643344
5.984,0.02806184,0.050608625,0.045683785,0.016062945,0.034644183593749996
5.988,0.028062142578124998,0.050608188,0.045681339843749995,0.016062676757812498,0.034644047
5.992,0.028061975,0.050607113,0.045677551,0.016061939,0.034642875
5.996,0.028061473,0.050606781249999996,0.045674765624999995,0.016060632,0.034640426
6,0.028061203,0.050607281,0.045680468749999995,0.016060196,0.034639422
6.004,0.028060801,0.050607953,0.045683082031249996,0.016059492,0.034639523
6.008,0.028061338,0.050607617187499995,0.045680164,0.016058486,0.034640191
6.012,0.028060029296874997,0.05060584,0.045675973,0.016056307,0.034639621093749996
6.016,0.028059293,0.050604602,0.045673324,0.016054697,0.034638449
6.02,0.028059527343749998,0.050603964843749995,0.045678758,0.016054831,0.034641703
6.024,0.028059962890624998,0.050603695312499995,0.045679898,0.016054831,0.03464341
6.028,0.028060197,0.050603395,0.045675773,0.016054496,0.034645391
6.032,0.028059863,0.050602254,0.045670675781249996,0.016052954,0.034644551
6.036,0.028058957031249998,0.050600141,0.04566766,0.016051277,0.034642676
6.04,0.028059461,0.050599305,0.045672957031249996,0.016051546,0.034642070312499995
6.044,0.028059560546874997,0.050598832,0.045674668,0.016051713,0.034642773437499996
6.048,0.028059023,0.050597761718749995,0.04567202,0.016051848,0.034644754
6.052,0.028058386718749998,0.05059682,0.045667762,0.016050774,0.03464643
6.056,0.028058186,0.050595312499999996,0.045664609,0.0160493,0.034645422
6.06,0.028058723,0.050594777343749994,0.04567118,0.016049467,0.034645859
6.064,0.028059059,0.050595546874999994,0.045674633,0.01604997,0.034646328
6.068,0.028059023,0.050596219,0.045672488,0.016050037,0.03464757
6.072,0.028057816406249998,0.050595047,0.045668328,0.016049534179687498,0.034647199
6.076,0.028057314,0.05059377,0.045664508,0.016048763,0.034646227
6.08,0.028058354,0.050593570312499996,0.045670609,0.016048863,0.034646129
6.084,0.028058656249999998,0.050593973,0.045673461,0.016048964,0.034645727
6.088,0.028058857,0.050594273,0.045670441,0.016048428,0.034645793
6.092,0.028058621,0.050593570312499996,0.045666152343749995,0.016046516601562498,0.034644449
6.096,0.028058521484374998,0.050592094,0.045662832031249996,0.016044304,0.034643848
6.1,0.028058621,0.050591289062499996,0.045667792968749996,0.016044572265624998,0.034645457
6.104,0.028058621,0.050592063,0.045671449,0.016045075195312498,0.034647738
6.108,0.028059191,0.050591859,0.045669336,0.01604484,0.034648809
6.112,0.028059863,0.050590519531249996,0.045664375,0.016043431640624998,0.034646699
6.116,0.028059392578124998,0.050588574218749995,0.045661656249999995,0.016042661,0.034644922
6.12,0.028059560546874997,0.050588844,0.045668898,0.016043834,0.034646964843749996
6.124,0.028060029296874997,0.050590016,0.045672285,0.016044940429687498,0.034648543
6.128,0.028060064,0.050590285,0.045670039,0.016045779,0.034649883
6.132,0.028059795,0.050589445312499995,0.045665078,0.016045544,0.034648641
6.136,0.028059729,0.050587468749999996,0.045661422,0.016043365,0.034646898
6.14,0.028060029296874997,0.050587301,0.045667727,0.016042862,0.034647266
