time,F8,F4,Fz,F3,F7
0,0.045637285,0.045931555,0.112799594,0.10439925,0.048820293
0.004,0.045636645,0.045931926,0.11279949218749999,0.104398547,0.048819793
0.008,0.045635039,0.045931589843749995,0.11279832031249999,0.10439794531249999,0.048820262
0.012,0.045635137,0.045930785,0.11279711718749999,0.104397781,0.048819523
0.016,0.045634469,0.045930246093749995,0.11279594531249999,0.104397781,0.048819656249999996
0.02,0.045634969,0.045930179687499996,0.11279587499999999,0.10439707031249999,0.048817547
0.024,0.045634703124999995,0.045929344,0.11279507,0.10439677343749999,0.048816874999999996
0.028,0.045632891,0.045929844,0.11279396093749999,0.10439760937499999,0.048816473
0.032,0.045633125,0.045931453,0.112796141,0.104397711,0.048815132812499995
0.036,0.045633629,0.045932460937499996,0.112799164,0.104397578,0.048815535
0.04,0.045633359374999995,0.045928941,0.112795805,0.10439599999999999,0.048812749999999995
0.044,0.045628031,0.045924816,0.112791281,0.10439446093749999,0.048811945
0.048,0.045624645,0.045923476562499996,0.112789102,0.104393617,0.048812484
0.052,0.045622063,0.045922672,0.112787188,0.10439217968749999,0.048813554687499996
0.056,0.045617168,0.04592173,0.112787258,0.104391273,0.048811542968749996
0.06,0.045614688,0.045921563,0.112787859,0.10439107,0.048809597656249995
0.064,0.045612676,0.045920793,0.11278524999999999,0.1043895,0.048806012
0.068,0.045610832,0.045919219,0.11278256249999999,0.10438845312499999,0.048803398
0.072,0.04560741,0.045918210937499995,0.112780453,0.10438675,0.048800414
0.076,0.045603723,0.045916535,0.112779141,0.104384969,0.048796891
0.08,0.045600066,0.045915125,0.112779344,0.10438396093749999,0.048795753906249996
0.084,0.045597285,0.045913917968749995,0.11277729687499999,0.104382789,0.048793941
0.088,0.045596246,0.045912813,0.112773781,0.104381586,0.048792332031249996
0.092,0.045595105,0.045911875,0.11277093,0.104380375,0.048789816
0.096,0.045594835937499995,0.0459105,0.11276794531249999,0.10437964062499999,0.048786766
0.1,0.045593094,0.045909058593749996,0.112765898,0.10437910156249999,0.048786129
0.104,0.045589976562499995,0.045908121,0.11276321874999999,0.104377594,0.048785492187499994
0.108,0.045586488,0.045908289062499996,0.11276107031249999,0.104376086,0.048786129
0.112,0.045584512,0.045908085937499996,0.11275973437499999,0.104374742,0.048784554687499995
0.116,0.045583406,0.045907719,0.11275808593749999,0.104373703,0.048782777
0.12,0.04558223,0.04590698,0.112757148,0.104372602,0.048781102
0.124,0.045580824218749996,0.045906441,0.112756141,0.10437209374999999,0.048782207
0.128,0.045577941406249996,0.045905472656249995,0.11275379687499999,0.10437159374999999,0.048782644531249995
0.132,0.045576566,0.045906039,0.112752289,0.10437055468749999,0.048784554687499995
0.136,0.045575359,0.045905941,0.11275182,0.104369477,0.048786296874999996
0.14,0.045575023,0.045905304687499995,0.11275232,0.10436975,0.048785793
0.144,0.045573043,0.045904832031249995,0.11275232,0.104370383,0.048788543
0.148,0.045573078,0.045904129,0.11275060937499999,0.10436971874999999,0.048787137
0.152,0.04557318,0.045904098,0.112751453,0.104369414,0.048788476562499995
0.156,0.045570562499999995,0.045903492,0.112752828,0.104369914,0.048789082
0.16,0.045568652343749995,0.045902688,0.112752289,0.10436914843749999,0.048788374999999995
0.164,0.045568785,0.045902688,0.11275125,0.10436847656249999,0.048788074
0.168,0.045566105,0.045902789,0.112749438,0.104368008,0.048788777
0.172,0.045563859374999995,0.045902921874999995,0.11274899999999999,0.104367633,0.048791023
0.176,0.045563121,0.045902050781249995,0.11274803124999999,0.104367305,0.04879116
0.18,0.045564359374999995,0.045901781249999996,0.112748133,0.104368039,0.048789984
0.184,0.045567313,0.045902688,0.112748266,0.10436924218749999,0.048789617187499995
0.188,0.045566675781249996,0.045901379,0.112745852,0.104369617,0.048789179687499996
0.192,0.045565031,0.045900910156249995,0.11274454687499999,0.10436914843749999,0.048790656249999995
0.196,0.045564460937499995,0.045900977,0.11274728906249999,0.104368977,0.048792332031249996
0.2,0.045564562499999996,0.045901078,0.11275010937499999,0.104368875,0.048793875
0.204,0.04556416,0.045900910156249995,0.112750711,0.104369414,0.04879384
0.208,0.045565734,0.045901281249999995,0.112750008,0.104369047,0.048792836
0.212,0.045564996,0.045900609,0.11274886718749999,0.104367969,0.048792164
0.216,0.045563355,0.045900273,0.112748836,0.104368172,0.048791359374999996
0.22,0.045563289,0.045900543,0.112749438,0.104367969,0.048790789
0.224,0.045565098,0.045900910156249995,0.11274927343749999,0.10436757031249999,0.048790320312499996
0.228,0.04556607,0.045901246,0.112748805,0.10436693,0.048790086
0.232,0.045567078,0.045902453,0.112747797,0.104366695,0.048790523
0.236,0.045567109,0.045902488,0.11274816406249999,0.104365727,0.048788844
0.24,0.045565801,0.045901348,0.11274977343749999,0.104365055,0.048790691406249996
0.244,0.045567008,0.045901449,0.112749375,0.10436549218749999,0.048789984
0.248,0.04556748,0.045901613281249996,0.11274762499999999,0.10436474999999999,0.048789550781249996
0.252,0.045566472656249996,0.045901179687499995,0.112748063,0.104364516,0.048789648
0.256,0.045566640624999995,0.045900477,0.112749141,0.104365055,0.048789316
0.26,0.045567781249999995,0.04589984,0.112750578,0.10436599218749999,0.048789316
0.264,0.04556768,0.045899438,0.11275068,0.10436686718749999,0.048789414062499994
0.268,0.045566605,0.045899234,0.112749336,0.104366227,0.048790121
0.272,0.045567410156249995,0.04590034,0.112749141,0.10436632812499999,0.04879002
0.276,0.045566977,0.045900777,0.112750914,0.10436673437499999,0.048789515624999995
0.28,0.045568316406249997,0.045900676,0.112752156,0.104367398,0.048789582
0.284,0.045570094,0.045900039062499995,0.11275060937499999,0.104367969,0.048788308593749996
0.288,0.045568988,0.045899805,0.112750039,0.10436790624999999,0.048789179687499996
0.292,0.045568418,0.045900242187499996,0.11274994531249999,0.104367969,0.048786531
0.296,0.04556768,0.04589957,0.112749844,0.104368508,0.048786363281249995
0.3,0.045566809,0.045899367,0.112750008,0.10436998437499999,0.048786667968749996
0.304,0.045566843749999995,0.045899203124999996,0.112749375,0.104370656,0.048785828
0.308,0.045566004,0.045898664,0.11274743,0.104370281,0.048786633
0.312,0.045564965,0.045898262,0.11274658593749999,0.104370383,0.048786902
0.316,0.045563152343749996,0.045897257812499995,0.11274803124999999,0.104371023,0.048786969
0.32,0.045563223,0.045896921874999996,0.112748766,0.104372898,0.048786566406249995
0.324,0.045562082,0.045896921874999996,0.11274940624999999,0.10437521093749999,0.048787503906249995
0.328,0.045561879,0.045896453,0.11274990624999999,0.104377727,0.048786699
0.332,0.045561410156249996,0.045895746093749995,0.11275027343749999,0.104380078,0.048786531
0.336,0.045562617,0.045895547,0.112752023,0.10438232,0.048787503906249995
0.34,0.045563152343749996,0.045896050781249996,0.11275359374999999,0.104384398,0.048785895
0.344,0.04556275,0.045896886718749995,0.11275379687499999,0.10438628124999999,0.048786266
0.348,0.04556225,0.045897324,0.112753359,0.104388258,0.048787637
0.352,0.045562516,0.045896886718749995,0.11275363281249999,0.10439043749999999,0.04878566
0.356,0.045562550781249996,0.045896453,0.112754805,0.104392711,0.048785625
0.36,0.045562047,0.045896117187499995,0.11275530468749999,0.10439399218749999,0.048785527343749996
0.364,0.045561945,0.045896820312499996,0.11275467187499999,0.104394695,0.048786129
0.368,0.045562316,0.045897257812499995,0.11275372656249999,0.104395633,0.04878593
0.372,0.045563457,0.045897996,0.112752828,0.10439566406249999,0.048784351562499995
0.376,0.045563086,0.045897289,0.112752789,0.104396031,0.048783012
0.38,0.045560305,0.045895613,0.112754398,0.104397344,0.048784152
0.384,0.045561008,0.045895949218749996,0.112753664,0.10439918749999999,0.048783379
0.388,0.045559769531249995,0.045896418,0.112752922,0.10440022656249999,0.048784554687499995
0.392,0.045557757812499995,0.045896387,0.112754102,0.10440109374999999,0.048785023
0.396,0.045558125,0.045896218749999995,0.112755906,0.104401195,0.048785895
0.4,0.04555752,0.04589548,0.112756477,0.10440217187499999,0.048787203
0.404,0.04555702,0.04589548,0.11275457,0.104403445,0.048787941
0.408,0.045556414062499995,0.045895246093749995,0.112752453,0.10440391406249999,0.048787805
0.412,0.045556582,0.04589548,0.11275185156249999,0.10440307812499999,0.048786766
0.416,0.045555644531249995,0.045896117187499995,0.11275268749999999,0.10440384374999999,0.048785895
0.42,0.045553195312499996,0.045896050781249996,0.112753492,0.104404781,0.048786766
0.424,0.045553164,0.045896082,0.112749875,0.104405625,0.048787402
0.428,0.045554234374999995,0.045896586,0.112741594,0.104406297,0.048786832
0.432,0.045554,0.045895883,0.11273844531249999,0.104406297,0.048786566406249995
0.436,0.045555074,0.045895582,0.112740422,0.10440723437499999,0.048785359
0.44,0.045554773,0.045895547,0.11274310156249999,0.104409008,0.048785793
0.444,0.04555618,0.045895512,0.112742531,0.104409984,0.048785625
0.448,0.045554437499999996,0.045895179687499996,0.11274018749999999,0.10441032,0.048784722656249994
0.452,0.04555343,0.045895582,0.112739344,0.104410953,0.048783547
0.456,0.045554234374999995,0.045896148,0.11273975,0.10441193,0.048784891
0.46,0.045554973,0.045895984,0.112737641,0.10441193,0.048784722656249994
0.464,0.04555675,0.045895781249999996,0.11273284374999999,0.10441155468749999,0.048784418
0.468,0.045557957,0.045896316,0.11273243749999999,0.104411625,0.048783215
0.472,0.045558293,0.045896418,0.112732539,0.104412398,0.048783379
0.476,0.045556852,0.045895914,0.112732336,0.104413266,0.048783949
0.48,0.045556582,0.045895914,0.11273354687499999,0.104413734,0.048785996
0.484,0.045555945,0.045895883,0.112734117,0.10441457812499999,0.048786598
0.488,0.045554503906249995,0.04589625,0.112729086,0.104415109,0.048787805
0.492,0.045554605468749995,0.045896586,0.112723789,0.104414477,0.048789012
0.496,0.045555578124999996,0.045896652,0.112721141,0.104413734,0.048788578124999996
0.5,0.045553801,0.04589625,0.112722047,0.104413234,0.048789012
0.504,0.045553801,0.045897355,0.11272305468749999,0.10441363281249999,0.048791359374999996
0.508,0.045554805,0.045899035,0.11272546874999999,0.104414305,0.048791863
0.512,0.04555293,0.045896988281249995,0.11272529687499999,0.10441357,0.048789246093749995
0.516,0.045551652,0.045894574,0.112726641,0.104412867,0.048785762
0.52,0.045552691,0.045894641,0.112728922,0.104411828,0.048784152
0.524,0.045551722656249995,0.04589548,0.112730328,0.104411289,0.048782742
0.528,0.045552691,0.045896418,0.112731164,0.104410383,0.048781132812499996
0.532,0.045554203,0.045897559,0.11273227343749999,0.104409883,0.048781
0.536,0.045552895,0.045897089843749996,0.112731867,0.10440960937499999,0.048779758
0.54,0.045552727,0.045896921874999996,0.112727313,0.104409578,0.048779023
0.544,0.045553632812499995,0.045896754,0.112722984,0.104408305,0.048779758
0.548,0.045552996,0.045896387,0.112718758,0.10440508593749999,0.048778351562499996
0.552,0.045551015624999996,0.045896352,0.112717148,0.104401898,0.048778417968749994
0.556,0.04555075,0.045896316,0.112720469,0.104399656,0.048777480468749995
0.56,0.045549977,0.045895445,0.112723289,0.10439744531249999,0.048778719
0.564,0.045549879,0.045895613,0.112724664,0.104395297,0.048779625
0.568,0.045550210937499995,0.045896418,0.11272596874999999,0.104393352,0.048780160156249995
0.572,0.045549374999999996,0.045896652,0.112728219,0.10439130468749999,0.048782039
0.576,0.04554827,0.045896050781249996,0.11273069531249999,0.10438885937499999,0.048783047
0.58,0.045547027,0.045895145,0.112732406,0.104386609,0.048781805
0.584,0.045548535,0.045895246093749995,0.112732875,0.104384398,0.048781535
0.588,0.045548234374999996,0.045895547,0.112733648,0.104383195,0.048781938
0.592,0.045548535,0.045895211,0.11273471874999999,0.10438262499999999,0.048781402343749995
0.596,0.045548805,0.045894137,0.112737102,0.10438201562499999,0.048781
0.6,0.045547867,0.045894238,0.112739047,0.104381617,0.048781367
0.604,0.04554773,0.045894406,0.112739047,0.104380211,0.048779191
0.608,0.045548300781249995,0.045894305,0.112737773,0.104377797,0.048777746
0.612,0.045547227,0.045893367,0.112738813,0.104375883,0.048778183593749996
0.616,0.045546187499999995,0.045892832,0.112741289,0.104375281,0.048779355
0.62,0.045545688,0.045892796874999996,0.11274310156249999,0.10437450781249999,0.048778922
0.624,0.045546324218749996,0.045892796874999996,0.112744445,0.10437367187499999,0.048778016
0.628,0.045547464843749996,0.045892796874999996,0.112743367,0.10437317187499999,0.048777378906249995
0.632,0.045548031249999996,0.045891961,0.11274222656249999,0.104371492,0.048777042968749997
0.636,0.045547965,0.045891891,0.112740758,0.10437035156249999,0.048777145
0.64,0.045546222656249996,0.045892395,0.11273455468749999,0.10436918,0.04877691
0.644,0.045546222656249996,0.045893066406249995,0.11272874999999999,0.104368578,0.048775734
0.648,0.045544246,0.045892964843749995,0.11272824999999999,0.104368039,0.048776676
0.652,0.045543070312499996,0.045893133,0.11273110156249999,0.10436723437499999,0.048776441406249996
0.656,0.045542468749999995,0.045893266,0.112733211,0.104366398,0.048774898
0.66,0.045542566,0.045892395,0.112734891,0.104366227,0.048775434
0.664,0.045542938,0.045891722656249995,0.11273475,0.10436612499999999,0.048774797
0.668,0.045543273,0.045891992,0.112732945,0.104365055,0.048774328124999995
0.672,0.045539887,0.045891859374999996,0.112733211,0.10436371093749999,0.048775097656249995
0.676,0.045539082,0.045891961,0.11273555468749999,0.10436341406249999,0.048774429687499996
0.68,0.045540390624999996,0.045892898437499996,0.112732906,0.10436284374999999,0.04877359
0.684,0.045540355468749995,0.04589243,0.11272603906249999,0.104362,0.048773926
0.688,0.045539652,0.045892461,0.112722484,0.104361531,0.048773523
0.692,0.045539684,0.045892999999999996,0.112719469,0.10436126562499999,0.048772214843749995
0.696,0.04553898,0.045893266,0.11271674999999999,0.10436139843749999,0.04877168
0.7,0.045537473,0.045892964843749995,0.11271507,0.104361367,0.048770304687499995
0.704,0.045537941,0.045893031,0.112714367,0.104362039,0.048767758
0.708,0.045537238281249996,0.045892527343749996,0.11271641406249999,0.104362672,0.048768629
0.712,0.045538343749999995,0.045891691,0.11271724999999999,0.104362406,0.048768527
0.716,0.045538007812499996,0.045890383,0.112718594,0.104361164,0.048767957031249996
0.72,0.045537707,0.045890113,0.112721508,0.104360664,0.048767121
0.724,0.045537738,0.045890683593749995,0.112722078,0.10435982031249999,0.048766984374999996
0.728,0.045536097656249996,0.045890652,0.112722984,0.10435918749999999,0.048766382812499995
0.732,0.045534621,0.045890183593749995,0.11272442968749999,0.104359156,0.048766684
0.736,0.045533714843749996,0.045890719,0.112726844,0.104358719,0.048766887
0.74,0.045534285,0.045891188,0.112728148,0.10435818,0.048765578
0.744,0.045533582,0.04589102,0.112725805,0.10435794531249999,0.048765879
0.748,0.045533918,0.045890515624999996,0.11272275,0.104357813,0.048766449
0.752,0.045533113281249996,0.04588968,0.11272285156249999,0.10435724218749999,0.048766348
0.756,0.045534488,0.045889949,0.112724695,0.104357414,0.048767855468749996
0.76,0.045535461,0.045890586,0.112725063,0.104357477,0.048766348
0.764,0.04553432,0.045891559,0.11272499999999999,0.104357609,0.048766348
0.768,0.045533113281249996,0.045891559,0.112724766,0.10435707812499999,0.048767355468749995
0.772,0.045533313,0.045891054687499995,0.11272499999999999,0.10435660937499999,0.048766348
0.776,0.045532543,0.045889914062499995,0.11272599999999999,0.10435670312499999,0.048764707
0.78,0.045531539,0.045889074,0.112726609,0.10435774218749999,0.048764336
0.784,0.045530801,0.045889644531249996,0.11272657,0.104358586,0.048765441
0.788,0.045528754,0.045891223,0.112726141,0.104358516,0.048767219
0.792,0.045528621,0.045892195312499995,0.112725766,0.10435882031249999,0.048769062499999995
0.796,0.045529426,0.045891054687499995,0.11272225,0.10435825,0.048766582
0.8,0.045529492,0.045888671874999995,0.11271799218749999,0.104356977,0.048763128906249995
0.804,0.045528184,0.045888003906249995,0.112718391,0.104355805,0.048762292968749996
0.808,0.045529089843749995,0.045889879,0.112719766,0.10435443,0.048762124999999996
0.812,0.045529156,0.045890551,0.112720875,0.104353891,0.048762059
0.816,0.045529594,0.045890551,0.112721547,0.104354289,0.048761688
0.82,0.045530766,0.045890852,0.11272093749999999,0.104354227,0.048760852
0.824,0.045532207,0.045891422,0.112716781,0.10435382,0.048760179687499995
0.828,0.045534117,0.045892363,0.11270877343749999,0.104353484,0.048761754
0.832,0.045532441,0.045892496,0.112704609,0.10435392187499999,0.048762426
0.836,0.045531805,0.045892598,0.11270280468749999,0.104354391,0.04876152
0.84,0.045532578,0.045893031,0.11270149218749999,0.104355234,0.048762023437499996
0.844,0.045532441,0.045893734374999995,0.112698109,0.104355531,0.048764804687499996
0.848,0.045532879,0.045894441,0.11269475781249999,0.10435536718749999,0.048766648
0.852,0.045534555,0.045894375,0.11269405468749999,0.10435543,0.048765277343749996
0.856,0.045533449,0.045894473,0.11269596093749999,0.104355063,0.048764637
0.86,0.045532910156249995,0.045895211,0.112696938,0.104354391,0.048763999999999995
0.864,0.045533918,0.045895914,0.112696266,0.104355266,0.048764539
0.868,0.045533617,0.045896316,0.11269421874999999,0.104355805,0.048765207
0.872,0.045534992,0.045896820312499996,0.112692305,0.10435529687499999,0.04876618
0.876,0.045535324,0.045896586,0.112692305,0.104355063,0.04876618
0.88,0.045536332,0.045895715,0.112691602,0.10435529687499999,0.048765477
0.884,0.045534891,0.045894976562499995,0.112689891,0.104354859,0.048766011718749995
0.888,0.045533816,0.04589407,0.112688352,0.104353523,0.048765945312499996
0.892,0.045533214843749996,0.045893535,0.112687516,0.10435362499999999,0.048765277343749996
0.896,0.045532711,0.045893367,0.11268865624999999,0.104353992,0.048765543
0.9,0.045531469,0.045892796874999996,0.112689461,0.10435382,0.04876457
0.904,0.045531805,0.045892898437499996,0.112688555,0.10435466406249999,0.048764472656249995
0.908,0.045532140624999995,0.045893301,0.11268718,0.10435405468749999,0.048764336
0.912,0.045529859374999995,0.045893031,0.11268985937499999,0.104353992,0.048765175781249996
0.916,0.045529859374999995,0.045892563,0.11269509374999999,0.104354492,0.048765511718749995
0.92,0.045527984,0.045891961,0.11269817187499999,0.104355031,0.048764168
0.924,0.045528086,0.045891422,0.112699313,0.10435479687499999,0.048763027
0.928,0.045529559,0.045891691,0.112698711,0.10435446093749999,0.048762059
0.932,0.045528891,0.045891793,0.11270072656249999,0.104354156,0.048761656
0.936,0.045528218749999995,0.045891691,0.112703336,0.10435382,0.048759777
0.94,0.045529089843749995,0.045891793,0.112704242,0.104352984,0.04875884
0.944,0.045528621,0.045891793,0.112703945,0.10435204687499999,0.04875884
0.948,0.045526238,0.045891757812499996,0.112703773,0.10435164062499999,0.048758871093749996
0.952,0.045524227,0.045891992,0.112705414,0.104350703,0.048759242187499996
0.956,0.045523223,0.045892125,0.112707695,0.10435043749999999,0.048758336
0.96,0.04552198,0.045891961,0.11270924218749999,0.10435043749999999,0.048756859374999996
0.964,0.045522383,0.045891656249999996,0.112708969,0.10435023437499999,0.048756960937499996
0.968,0.045523422,0.045891457,0.11270799999999999,0.104349797,0.048756895
0.972,0.045523257812499995,0.045890617187499996,0.112708234,0.10435023437499999,0.048756054687499994
0.976,0.045522586,0.045889710937499995,0.11270820312499999,0.104350266,0.048754816
0.98,0.045522718749999996,0.045889109,0.11270380468749999,0.104350367,0.048752602
0.984,0.045523156249999995,0.045888773437499995,0.11270102343749999,0.10435010156249999,0.048751093749999995
0.988,0.045521746093749996,0.045888941406249995,0.11270122656249999,0.104349531,0.048752199
0.992,0.045520605468749996,0.04588884,0.112702836,0.10434943,0.048752667968749996
0.996,0.045521042968749995,0.045888238,0.112705352,0.10435010156249999,0.048752098
1,0.045519801,0.045887566,0.112707727,0.10435073437499999,0.04875173
1.004,0.045519031,0.045887867,0.11270782812499999,0.10435114062499999,0.048752266
1.008,0.045517488,0.045887602,0.112708063,0.104351039,0.048752805
1.012,0.045517488,0.045887535,0.112705117,0.104351109,0.048751832
1.016,0.045517355,0.045887937499999996,0.11270115624999999,0.10435127343749999,0.048750222656249995
1.02,0.04551893,0.045887937499999996,0.112698711,0.104351375,0.048750086
1.024,0.045520172,0.045887332,0.11269733593749999,0.10435271874999999,0.048749851562499995
1.028,0.045518227,0.04588723,0.112694859,0.104353453,0.048749683593749996
1.032,0.045517152,0.045886695312499996,0.11269338281249999,0.104353953,0.048749484
1.036,0.045517625,0.045885957,0.112692039,0.10435432812499999,0.048748848
1.04,0.045520742,0.045885488,0.112688352,0.104354289,0.04874727
1.044,0.045517523,0.045884383,0.112683758,0.104353789,0.048748210937499994
1.048,0.045516586,0.045884719,0.112679266,0.104352852,0.048748210937499994
1.052,0.045515781,0.045885086,0.112675313,0.10435258593749999,0.048748242
1.056,0.045516183593749995,0.045884582031249996,0.11267326562499999,0.104352281,0.04874791
1.06,0.045515210937499995,0.045883277,0.11267319531249999,0.104352281,0.048747671874999995
1.064,0.045514371,0.045884047,0.11267534374999999,0.104351742,0.048746602
1.068,0.04551568,0.04588418,0.112677055,0.10435147656249999,0.048744254
1.072,0.045514874999999996,0.045883578,0.112679133,0.10435147656249999,0.04874432
1.076,0.045514738281249995,0.045882805,0.11268175,0.104351875,0.048743984
1.08,0.045515914062499996,0.045882305,0.112683422,0.10435204687499999,0.048743215
1.084,0.045515578,0.045882504,0.11268533593749999,0.10435204687499999,0.048742578
1.088,0.045515008,0.045882504,0.112686477,0.104352781,0.048743917968749995
1.092,0.045514977,0.045882504,0.112687242,0.104353656,0.048744086
1.096,0.045514102,0.045882336,0.112688352,0.10435496093749999,0.048742844
1.1,0.045512227,0.045882,0.112690094,0.104356234,0.048742812499999996
1.104,0.045510883,0.04588227,0.11269043,0.10435778124999999,0.048744488
1.108,0.045511488,0.045882839843749995,0.112689797,0.104359086,0.048741738281249995
1.112,0.045511656,0.045882671874999996,0.112689594,0.10436015624999999,0.048740297
1.116,0.04551132,0.045882504,0.112690867,0.10436176562499999,0.048740164
1.12,0.045510348,0.045881668,0.11269143749999999,0.104363375,0.048741336
1.124,0.045509980468749996,0.045881332,0.11269032812499999,0.104365156,0.048741636718749995
1.128,0.045509746,0.045881968749999995,0.112688852,0.10436723437499999,0.048740800781249996
1.132,0.045509441,0.045881668,0.112687281,0.10436918,0.048740097656249995
1.136,0.045509375,0.045881027,0.112686406,0.10437055468749999,0.048739527
1.14,0.045510012,0.045880390624999996,0.11268600781249999,0.104371656,0.048737949
1.144,0.045507262,0.045880793,0.112686906,0.104372867,0.048739023
1.148,0.045505488,0.045881734,0.11268757812499999,0.104373977,0.048739527
1.152,0.045505687499999996,0.045881668,0.112687945,0.10437487499999999,0.048737883
1.156,0.045504648437499996,0.045880793,0.112689594,0.104376016,0.048738219
1.16,0.045504313,0.045880324,0.11269234374999999,0.104378469,0.048739527
1.164,0.045504043,0.045880594,0.112692375,0.104381984,0.048738687499999996
1.168,0.045502804687499995,0.045880324,0.112691305,0.10438902343749999,0.048737449
1.172,0.045501262,0.045880058593749995,0.112692039,0.104398047,0.048737516
1.176,0.045499855468749996,0.045879152,0.112693047,0.10440743,0.048736977
1.18,0.045499753906249996,0.045879555,0.112693781,0.104416516,0.048735938
1.184,0.045500792968749995,0.045880726562499995,0.11269227343749999,0.10442325781249999,0.048735203
1.188,0.045500457,0.045880594,0.112690969,0.10442922656249999,0.048736777343749996
1.192,0.045498781249999995,0.045879855,0.112690461,0.10443566406249999,0.048736843749999995
1.196,0.045498914,0.045879051,0.112691133,0.104442,0.048734531
1.2,0.045500289,0.045878648437499996,0.112690633,0.10444719531249999,0.04873443
1.204,0.045498714843749996,0.045878516,0.11269043,0.104452023,0.048735504
1.208,0.045496938,0.045878012,0.11268932,0.104455813,0.04873577
1.212,0.045496938,0.045877813,0.112689422,0.104458664,0.048737246
1.216,0.045497004,0.045877309,0.11269043,0.10446104687499999,0.04873718
1.22,0.045496098,0.045876605,0.112690766,0.104463594,0.048738387
1.224,0.04549516,0.045876367187499996,0.112689422,0.104465875,0.048740129
1.228,0.045495598,0.045875934,0.11268617187499999,0.10446653906249999,0.048740531
1.232,0.045493785,0.045875094,0.112684898,0.104467047,0.048742375
1.236,0.045492847656249995,0.045875094,0.11268557,0.104467516,0.048741707
1.24,0.045492242,0.045875195,0.112685234,0.10446748437499999,0.048740266
1.244,0.045491238,0.045875531,0.112683859,0.104467281,0.048741238281249995
1.248,0.045492277,0.045876102,0.112680805,0.10446393,0.048740266
1.252,0.045490602,0.045876133,0.112679,0.104458328,0.048741875
1.256,0.04549023,0.045876102,0.11267949999999999,0.10445229687499999,0.048741738281249995
1.26,0.045491473,0.045875664062499995,0.11267943,0.104446664,0.048740363
1.264,0.045490398437499996,0.04587543,0.112678156,0.104440961,0.048741738281249995
1.268,0.045489796874999995,0.045875262,0.112675914,0.104435695,0.048741875
1.272,0.045487316,0.045874523437499995,0.112674875,0.104431273,0.048742812499999996
1.276,0.045484261718749995,0.045874121,0.112674234,0.104426844,0.048743215
1.28,0.045484531249999995,0.045874457031249996,0.11267339843749999,0.10442125,0.048742074
1.284,0.045483625,0.045874457031249996,0.112670883,0.104415445,0.048741203
1.288,0.045482754,0.045874624999999995,0.11266840624999999,0.104409883,0.048741839843749996
1.292,0.04548232,0.045873352,0.112666391,0.104403977,0.048741238281249995
1.296,0.045481648,0.045871941,0.11266571874999999,0.10439831249999999,0.048740597656249995
1.3,0.045481848,0.04587218,0.11266447656249999,0.10439338281249999,0.048739996093749995
1.304,0.045481414062499996,0.045872648,0.112662469,0.104389531,0.048741102
1.308,0.045481144531249997,0.04587268,0.11266085937499999,0.10438553906249999,0.048741839843749996
1.312,0.045480809,0.045872546874999996,0.112659922,0.104382727,0.048741636718749995
1.316,0.045479132812499996,0.045872012,0.112660891,0.10437977343749999,0.048739226562499995
1.32,0.045479468749999995,0.045872012,0.112660758,0.10437685937499999,0.048739226562499995
1.324,0.045480406,0.04587191,0.112658344,0.104373102,0.048739324
1.328,0.045479402343749996,0.045871172,0.112655563,0.104369547,0.048740297
1.332,0.045477793,0.045871172,0.11265468749999999,0.10436593,0.048742309
1.336,0.045479637,0.045871441,0.112654922,0.104362672,0.048738922
1.34,0.045478766,0.045870902,0.112654789,0.104359789,0.048738152
1.344,0.045478328124999995,0.045870804687499996,0.112653547,0.104356977,0.048737883
1.348,0.045478563,0.045871004,0.11265247656249999,0.104353789,0.048737449
1.352,0.045478563,0.04587057,0.11265197656249999,0.104350367,0.048737046874999995
1.356,0.045478297,0.04586943,0.112651742,0.10434761718749999,0.048736777343749996
1.36,0.045476988,0.045869125,0.112652039,0.104346047,0.048736273
1.364,0.045477523,0.04586916,0.112651203,0.104344805,0.048736039
1.368,0.045478027,0.045869460937499995,0.112650094,0.104343664,0.048734832031249994
1.372,0.045477625,0.045868758,0.112649055,0.104341922,0.048732921874999995
1.376,0.045475781,0.04586725,0.112649461,0.104340281,0.048732453
1.38,0.045475043,0.045866343749999997,0.11264969531249999,0.10433873437499999,0.048731714843749996
1.384,0.045475344,0.045866410156249995,0.11264671093749999,0.104336352,0.048731011718749995
1.388,0.045473805,0.045866578124999995,0.11264492968749999,0.104334883,0.048730172
1.392,0.045473066,0.045866813,0.11264406249999999,0.104333336,0.048729433593749996
1.396,0.045473133,0.045866746,0.11264157812499999,0.104331359,0.048728695
1.4,0.045470785,0.045866242187499996,0.11263957031249999,0.104330289,0.048728898
1.404,0.045470585937499995,0.045866343749999997,0.112635648,0.10432944531249999,0.048727691406249996
1.408,0.045472359,0.045866547,0.11263199218749999,0.104328844,0.048726617187499995
1.412,0.045471926,0.045866313,0.112628641,0.104328375,0.048727992
1.416,0.045470148437499996,0.045864969,0.112627195,0.104327469,0.048727324
1.42,0.045469512,0.045864230468749996,0.11262571874999999,0.10432636718749999,0.048727223
1.424,0.04546827,0.045863730468749996,0.112622266,0.10432499218749999,0.048727792968749996
1.428,0.045468738,0.045862855,0.112619188,0.10432438281249999,0.048728027
1.432,0.045467332031249995,0.045862488281249995,0.112617344,0.10432354687499999,0.048726047
1.436,0.045464550781249995,0.045862152,0.112617844,0.104322773,0.048726753906249996
1.44,0.045464214843749996,0.045861550781249996,0.11261626562499999,0.104321367,0.048726988281249994
1.444,0.045464214843749996,0.045862086,0.112614156,0.10432043,0.048727559
1.448,0.045463140624999995,0.045862691406249996,0.11261281249999999,0.10431985937499999,0.048728531
1.452,0.045463543,0.045862555,0.11261218,0.104319695,0.048725781249999996
1.456,0.045464449,0.045862121,0.11261160937499999,0.10432002343749999,0.048724437499999995
1.46,0.045463879,0.045862355,0.112610836,0.104319125,0.048725445
1.464,0.045461969,0.045861886718749995,0.11260896093749999,0.10431778124999999,0.048725008
1.468,0.045462402,0.045861515624999995,0.112608656,0.104317516,0.048723398437499996
1.472,0.045461499999999995,0.045861113,0.112609695,0.10431724218749999,0.048720617187499995
1.476,0.045459320312499996,0.045860441,0.112611172,0.104317141,0.048720551
1.48,0.045459921874999996,0.045860207031249996,0.112610969,0.104316711,0.048720515624999995
1.484,0.045459891,0.04585957,0.11261,0.10431624218749999,0.048720785156249995
1.488,0.045457777,0.045859203,0.112609156,0.10431533593749999,0.048722094
1.492,0.045459184,0.045859503906249995,0.112608656,0.104313727,0.048719242
1.496,0.045457879,0.045859672,0.11261049999999999,0.104313289,0.048720281
1.5,0.045458043,0.045859167968749996,0.112611141,0.10431332,0.048720246093749996
1.504,0.045458043,0.045858598,0.112609727,0.104313156,0.04872018
1.508,0.045456769531249996,0.045857492,0.112607953,0.10431188281249999,0.048718805
1.512,0.04545543,0.045855918,0.112608391,0.104310875,0.04871884
1.516,0.045454054687499995,0.045855113,0.112610633,0.104310539,0.048721086
1.52,0.045453586,0.045854945,0.112610633,0.10431077343749999,0.048718437499999996
1.524,0.045453785156249996,0.045854977,0.112609563,0.104310133,0.048717632812499995
1.528,0.045453688,0.045855715,0.11261003124999999,0.10430993749999999,0.048719512
1.532,0.045454156249999995,0.045855078,0.112610398,0.104309664,0.048719008
1.536,0.04545248,0.045854644531249995,0.112611305,0.10430835937499999,0.048718335937499996
1.54,0.045450734374999996,0.045853605468749996,0.11261120312499999,0.104307422,0.048717734374999995
1.544,0.04544832,0.045853605468749996,0.11261049999999999,0.10430828906249999,0.048718168
1.548,0.045447215,0.045854074,0.11260993,0.104309133,0.048719043
1.552,0.045447047,0.045854074,0.112610633,0.10430903124999999,0.048717934
1.556,0.045446477,0.04585327,0.112611711,0.104308391,0.048718941
1.56,0.045445641,0.045852801,0.11261224218749999,0.10430782,0.048718973
1.564,0.045448555,0.045853367,0.112611672,0.104307086,0.048715554687499996
1.568,0.045446645,0.045853035,0.112612273,0.104307188,0.04871666
1.572,0.045445305,0.045852867,0.112614156,0.10430765624999999,0.048717363281249995
1.576,0.045446042968749996,0.045852363281249996,0.112615063,0.104307055,0.048716895
1.58,0.045444734,0.045852496,0.112615797,0.104306516,0.04871666
1.584,0.045445406,0.045852496,0.11261468749999999,0.104306516,0.048714984
1.588,0.045446141,0.045852063,0.11261432031249999,0.104307188,0.048714449
1.592,0.045445035,0.045850988,0.11261542968749999,0.104306719,0.048714215
1.596,0.045444668,0.045850387,0.11261613281249999,0.104306016,0.04871341
1.6,0.045444097656249995,0.045849445,0.11261596874999999,0.104305445,0.048714012
1.604,0.045443160156249995,0.045848977,0.112614758,0.104304641,0.048712168
1.608,0.045442824,0.045848305,0.11261405468749999,0.104304367,0.048712468749999994
1.612,0.045444734,0.04584777,0.11261382,0.1043035,0.048712402343749996
1.616,0.045442254,0.045846695,0.112615695,0.104303328,0.048712367
1.62,0.045440746,0.045846629,0.11261700781249999,0.1043035,0.048710625
1.624,0.045439636718749996,0.045846695,0.112615828,0.104302695,0.048710324
1.628,0.045439539,0.045846965,0.112614219,0.104301523,0.048710895
1.632,0.045440344,0.045846629,0.11261418749999999,0.104300719,0.048709351562499996
1.636,0.045439504,0.045845254,0.11261542968749999,0.104300719,0.048709453124999996
1.64,0.045438902,0.045844684,0.11261592968749999,0.104300477,0.048709586
1.644,0.045436152,0.045845085937499995,0.112615328,0.104300008,0.048709285
1.648,0.045436621,0.045845488,0.112614961,0.104299344,0.048708145
1.652,0.045435546874999996,0.045844449,0.11261633593749999,0.104298969,0.048709719
1.656,0.045435113281249995,0.045843378906249996,0.112618383,0.104298836,0.048709621093749995
1.66,0.045434809,0.045843613,0.11261895312499999,0.10429870312499999,0.048709754
1.664,0.045433367,0.045843378906249996,0.112618383,0.104298133,0.048710324
1.668,0.045433636718749996,0.045842641,0.11261653906249999,0.104297297,0.048709922
1.672,0.045432765624999996,0.045841566,0.11261696874999999,0.104296055,0.048710859
1.676,0.045432195,0.045840594,0.112618813,0.104295219,0.048709351562499996
1.68,0.045431691406249995,0.045840328124999996,0.11261874999999999,0.104295219,0.048708512
1.684,0.045430352,0.045840496093749995,0.11261868,0.10429488281249999,0.048709082031249996
1.688,0.045430219,0.045840461,0.112618148,0.104294609,0.048707777343749994
1.692,0.04543109,0.045840258,0.112618109,0.104293977,0.048706199218749996
1.696,0.045429445,0.045839422,0.112619719,0.104293406,0.048705027
1.7,0.045428640624999996,0.045839253906249995,0.11262132812499999,0.10429400781249999,0.048704624999999994
1.704,0.045430352,0.045839555,0.11262035937499999,0.104293977,0.048704523
1.708,0.045428441,0.045839152343749995,0.112619852,0.104293773,0.048706199218749996
1.712,0.045426460937499996,0.04583902,0.11262153124999999,0.10429371093749999,0.048707172
1.716,0.045427871093749995,0.045838382812499995,0.11262314062499999,0.104294109,0.048703016
1.72,0.045427969,0.045837441,0.11262381249999999,0.10429454687499999,0.048700902
1.724,0.045426863,0.045837711,0.11262377343749999,0.104294281,0.04870107
1.728,0.045425757812499995,0.045837945312499996,0.11262464843749999,0.104293609,0.048699629
1.732,0.045425625,0.045837843749999996,0.11262666406249999,0.104293,0.048696711
1.736,0.045424652,0.045836875,0.112629344,0.104292336,0.048695167968749994
1.74,0.045422640624999996,0.045835633,0.112631016,0.10429246874999999,0.048695269531249995
1.744,0.045422172,0.045835128906249994,0.11263115624999999,0.104292133,0.048695101562499996
1.748,0.045422437499999996,0.045834594,0.11263061718749999,0.104291594,0.048695238
1.752,0.045419488281249996,0.045833754,0.11263111718749999,0.104291594,0.048696109
1.756,0.045417644531249995,0.045832984,0.11263215624999999,0.10429260156249999,0.048695738
1.76,0.045416605468749996,0.045832781249999996,0.11263256249999999,0.104293406,0.048695773
1.764,0.045417207,0.04583302,0.112631555,0.10429314062499999,0.048693792968749997
1.768,0.045417945,0.045832715,0.11263028124999999,0.104293203,0.048692824
1.772,0.045418148,0.045832379,0.112629813,0.10429343749999999,0.048691715
1.776,0.045417812499999995,0.045831308593749995,0.112629609,0.10429310156249999,0.048688699
1.78,0.045416102,0.045830402,0.112630883,0.10429350781249999,0.048689437499999995
1.784,0.045415332,0.045829699,0.112629477,0.104292438,0.048689738
1.788,0.045413254,0.04582943,0.11262807,0.10429122656249999,0.048690777
1.792,0.045413688,0.045829934,0.112628234,0.104291297,0.048690410156249996
1.796,0.045415398,0.045830101562499996,0.112629008,0.104291125,0.048689066406249995
1.8,0.045415363281249996,0.045830035,0.11262974218749999,0.104291297,0.04868873
1.804,0.045412480468749995,0.045829832,0.11262924218749999,0.104291461,0.048689234
1.808,0.045413519531249995,0.045830535,0.112626992,0.104291094,0.048689101562499996
1.812,0.045412851562499995,0.045830738,0.11262709374999999,0.10429172656249999,0.048688563
1.816,0.045411074,0.045830438,0.112628508,0.104293977,0.048687121
1.82,0.045410035,0.045830167968749995,0.112629313,0.10430031249999999,0.048685414062499995
1.824,0.045410602,0.045830805,0.112626992,0.10430778906249999,0.048684574
1.828,0.045411141,0.045830937499999995,0.11262501562499999,0.104315531,0.048684305
1.832,0.045407585937499995,0.045829598,0.11262555468749999,0.104324148,0.048685144531249995
1.836,0.045404703,0.045829094,0.11262742968749999,0.104331797,0.048684742
1.84,0.045404133,0.045828996,0.112628234,0.104339102,0.048682227
1.844,0.0454045,0.045828289,0.11262713281249999,0.10434557812499999,0.048682363281249995
1.848,0.045405136718749996,0.045827386718749995,0.112626523,0.10435201562499999,0.048682629
1.852,0.045404468749999996,0.045826582,0.11262749999999999,0.104358219,0.048683738
1.856,0.045405773,0.045826144531249995,0.11262679687499999,0.10436321093749999,0.048681324218749995
1.86,0.045407519531249996,0.045826109,0.11262521874999999,0.10436820312499999,0.048679949
1.864,0.045405473,0.045825140624999997,0.11262347656249999,0.104371656,0.048680183593749995
1.868,0.045404367187499996,0.045824367,0.11262236718749999,0.104375586,0.048681019531249994
1.872,0.045403863,0.045823664,0.112622266,0.104380172,0.048680351562499995
1.876,0.045402055,0.045822925781249996,0.112622203,0.10438815624999999,0.04867941
1.88,0.045402891,0.045822691,0.112621359,0.10439948437499999,0.04867891
1.884,0.045401684,0.045822523,0.112620227,0.104409914,0.048679848
1.888,0.045399672,0.045822656249999996,0.112619891,0.104418969,0.048679746
1.892,0.045399172,0.045822727,0.112619922,0.104427922,0.048679344
1.896,0.04539602,0.045822156249999996,0.112621563,0.104436,0.048680183593749995
1.9,0.045396355468749996,0.045822188,0.11262223437499999,0.104443641,0.048679812499999996
1.904,0.045397863,0.045822254,0.112621164,0.10445071874999999,0.048678508
1.908,0.04539773,0.045821652,0.112620758,0.104457289,0.048678171874999995
1.912,0.045396188,0.045821215,0.112620797,0.104462688,0.048675656
1.916,0.045397089843749995,0.045821082031249995,0.112621461,0.104468016,0.04867368
1.92,0.045397426,0.045821418,0.11262273437499999,0.104472648,0.048671734
1.924,0.045397527,0.045822656249999996,0.112622203,0.104478141,0.048669824
1.928,0.045396891,0.045823195312499995,0.11262132812499999,0.104482734,0.048671867187499995
1.932,0.04539602,0.045821922,0.112619516,0.10448699218749999,0.048672305
1.936,0.045394343749999996,0.045819238,0.11261908593749999,0.10449108593749999,0.048672839843749996
1.94,0.045392867,0.045818465,0.11261978906249999,0.10449503906249999,0.048673645
1.944,0.045392734,0.04581927,0.11261757812499999,0.10449782031249999,0.048675355
1.948,0.04539052,0.045818938,0.112615398,0.104500039,0.048676761718749996
1.952,0.045387469,0.045817125,0.112613453,0.10450224999999999,0.048676797
1.956,0.045385828,0.045816523,0.112612844,0.104504766,0.048675187499999995
1.96,0.045385457,0.045816219,0.112610969,0.104506375,0.048673309
1.964,0.045383078,0.045815749999999995,0.112607211,0.104508188,0.048675187499999995
1.968,0.045380629,0.045815348,0.112605977,0.104509828,0.048676898
1.972,0.04538073,0.045814710937499996,0.11260496874999999,0.10451153906249999,0.048675926
1.976,0.045379156,0.045812597656249995,0.112603094,0.104512844,0.048673980468749996
1.98,0.045376671874999996,0.045811156,0.11260024218749999,0.104513313,0.04866932
1.984,0.045375902343749996,0.045810754,0.11259793,0.10451382031249999,0.048666773
1.988,0.045375734,0.045810687499999996,0.112595711,0.104514086,0.048666035156249995
1.992,0.045373285,0.045809852,0.112594609,0.10451382031249999,0.048666938
1.996,0.045372012,0.045808375,0.11259410156249999,0.104514289,0.048667309
2,0.045370707,0.045807504,0.112592633,0.104514188,0.048666336
2.004,0.045369668,0.045807535156249996,0.112590688,0.10451382031249999,0.048666469
2.008,0.045368023437499995,0.045806898,0.112588102,0.104512477,0.048665765624999996
2.012,0.04536782,0.045806195,0.11258757,0.104510531,0.048664624999999996
2.016,0.045364804687499996,0.045804219,0.11258729687499999,0.104509086,0.048663184
2.02,0.045361550781249996,0.045802977,0.1125875,0.104508281,0.048664055
2.024,0.045361855,0.045804051,0.11258796874999999,0.104507383,0.048662914
2.028,0.045360781249999996,0.045802640624999995,0.112585859,0.10450543749999999,0.04865943
2.032,0.045360313,0.045801301,0.11258568749999999,0.104503422,0.04865725
2.036,0.045358469,0.045800395,0.112586492,0.104502016,0.048659328
2.04,0.045354813,0.045798352,0.11258582,0.104500977,0.048662078
2.044,0.045353503906249995,0.045797578124999995,0.11258464843749999,0.104499531,0.048662781249999995
2.048,0.045352199,0.045797613281249996,0.11258464843749999,0.10449856249999999,0.048659766
2.052,0.045352063,0.045798082,0.11258555468749999,0.10449782031249999,0.04865752
2.056,0.045352937499999996,0.045796305,0.11258468749999999,0.104496414,0.048655676
2.06,0.045352031,0.045793757812499995,0.112583172,0.10449560937499999,0.04865584
2.064,0.045347203,0.045792852,0.112583344,0.104495273,0.048656679687499996
2.068,0.045346464843749996,0.045793086,0.112583711,0.10449524218749999,0.04865648
2.072,0.045347336,0.04579332,0.112583344,0.104494336,0.048656242
2.076,0.045346632812499996,0.045793055,0.11258340624999999,0.10449275781249999,0.048654902
2.08,0.045344890624999995,0.04579275,0.11258347656249999,0.104492563,0.048652621
2.084,0.045344957,0.045792718749999996,0.112583211,0.104492289,0.048651816
2.088,0.045345727,0.045792652,0.112583141,0.104490914,0.048652656249999995
2.092,0.045346195,0.045791242,0.112583078,0.104489609,0.048651785156249995
2.096,0.045344722656249996,0.045789699,0.112583508,0.104487094,0.048651515624999996
2.1,0.045343781,0.045790605468749995,0.11258431249999999,0.104473586,0.048652859374999996
2.104,0.045343715,0.045792215,0.112584047,0.104454805,0.048652824218749995
2.108,0.045344519531249995,0.04579198,0.112583172,0.104437578,0.04865125
2.112,0.045344351562499996,0.045791277,0.112582602,0.10442134374999999,0.048647863281249995
2.116,0.045342977,0.045790973,0.112584484,0.104406797,0.048649402343749995
2.12,0.045343047,0.04579057,0.112583914,0.104393656,0.048649707031249996
2.124,0.045343749999999995,0.045789398,0.11258116406249999,0.10438088281249999,0.048649805
2.128,0.045343348,0.045788996,0.112582336,0.104369883,0.048651785156249995
2.132,0.045342645,0.045789332,0.11258501562499999,0.104360492,0.048652188
2.136,0.045342609374999995,0.045788996,0.11258602343749999,0.10435217968749999,0.048650176
2.14,0.045342507812499995,0.045788023,0.11258518749999999,0.104344063,0.048647258
2.144,0.045342507812499995,0.045788461,0.112584547,0.104336258,0.048646824218749996
2.148,0.045341871,0.045788191,0.11258381249999999,0.10432968,0.048647156
2.152,0.045341102,0.045786246,0.112581836,0.104323414,0.048646285156249996
2.156,0.045339426,0.045785242,0.112583141,0.104317945,0.048647425781249996
2.16,0.045338352,0.045785339843749995,0.11258471874999999,0.10431238281249999,0.048648801
2.164,0.045337914,0.045785777,0.11258394531249999,0.104306383,0.048647324218749996
2.168,0.045338922,0.045785273437499996,0.11258290624999999,0.10430024218749999,0.048642766
2.172,0.045337848,0.045785242,0.112583039,0.10429418,0.048638742
2.176,0.045336675781249995,0.04578477,0.11258568749999999,0.10428894531249999,0.048639078
2.18,0.045333723,0.045784168,0.112586195,0.10428455468749999,0.048642664
2.184,0.045331477,0.045783800781249995,0.112584078,0.104280031,0.048644039
2.188,0.045331109,0.045784203,0.112583914,0.10427583593749999,0.048643503906249996
2.192,0.045330406,0.045783664,0.112584281,0.10427185156249999,0.048642496
2.196,0.045330472656249995,0.045783328124999995,0.11258498437499999,0.104268297,0.048639378906249996
2.2,0.045329499999999995,0.045782324218749997,0.11258464843749999,0.104264273,0.048637805
2.204,0.045327050781249996,0.045781417968749995,0.112583141,0.10425994531249999,0.048637636718749995
2.208,0.045326785,0.045781417968749995,0.11258223437499999,0.104256289,0.048636597656249995
2.212,0.045325945,0.045781016,0.112584078,0.10425314062499999,0.048635859
2.216,0.045323667968749995,0.045779875,0.11258602343749999,0.104250758,0.048637265624999995
2.22,0.045322425781249995,0.045778336,0.112584953,0.104248211,0.048639210937499996
2.224,0.045323266,0.045777262,0.112582305,0.104245156,0.048636363
2.228,0.045321488281249996,0.045775754,0.112581094,0.104241805,0.048635156
2.232,0.045320918,0.045775249999999996,0.112582039,0.10423845312499999,0.048634988
2.236,0.045319711,0.045775383,0.112584484,0.104236039,0.048633781
2.24,0.045317398437499996,0.045775953,0.11258525781249999,0.10423413281249999,0.048633445312499995
2.244,0.045317496,0.045776253906249995,0.112583578,0.104232453,0.048634519531249996
2.248,0.045316961,0.04577498,0.11258186718749999,0.104230914,0.048635289062499996
2.252,0.045316391,0.045773473,0.112581133,0.104229,0.048634922
2.256,0.045315418,0.045772332031249995,0.112580898,0.104228227,0.048634617
2.26,0.045315418,0.0457725,0.11258028906249999,0.10422732,0.048634687499999996
2.264,0.045315789,0.045773203124999995,0.112579148,0.104226281,0.048631668
2.268,0.045317129,0.045774546874999995,0.11257942187499999,0.10422484374999999,0.04863016
2.272,0.045317496,0.045773605,0.112578578,0.104222633,0.048630059
2.276,0.045313844,0.045771262,0.112576938,0.10422061718749999,0.048629992
2.28,0.045312098,0.045771461,0.11257714062499999,0.104219414,0.048632172
2.284,0.045314379,0.045772199,0.112576,0.10421783593749999,0.048631703124999995
2.288,0.045314848,0.045770355468749996,0.112574289,0.104216523,0.048631133
2.292,0.045312570312499995,0.045769684,0.11257607,0.10421582,0.048630629
2.296,0.045312031249999996,0.045769953,0.112578445,0.10421521874999999,0.048629992
2.3,0.045312570312499995,0.045770723,0.112580461,0.104213945,0.04862798
2.304,0.045314512,0.045771094,0.11257945312499999,0.10421260156249999,0.048628984374999996
2.308,0.045314848,0.045770488,0.112577039,0.104210523,0.048630059
2.312,0.045311832,0.04576925,0.112577406,0.104209289,0.048630328
2.316,0.045307473,0.045769011718749995,0.11258096093749999,0.10420904687499999,0.048633277343749996
2.32,0.045307473,0.045770253906249996,0.112581898,0.10420904687499999,0.048633848
2.324,0.04530841,0.045769516,0.11257867968749999,0.104207438,0.048632438
2.328,0.04530868,0.045769047,0.11257734374999999,0.10420549999999999,0.048630664062499995
2.332,0.045308512,0.045768578,0.11257730468749999,0.104204156,0.048630898
2.336,0.045308176,0.045768175781249996,0.112576367,0.10420348437499999,0.048631668
2.34,0.045307203,0.045767875,0.11257332031249999,0.104202242,0.048631230468749995
2.344,0.045307672,0.045768914,0.11256929687499999,0.104201008,0.048632238
2.348,0.045307574,0.045769316406249996,0.11256654687499999,0.104199727,0.048631332031249995
2.352,0.045307574,0.045768343749999996,0.112565203,0.104198727,0.048631098
2.356,0.045308176,0.045768309,0.112563625,0.10419815624999999,0.048630594
2.36,0.045307305,0.045768140624999995,0.11256161718749999,0.10419782,0.048629723
2.364,0.045306968749999996,0.045768309,0.112559938,0.104197414,0.048629320312499995
2.368,0.045307809,0.045768609,0.112558766,0.10419614062499999,0.048631332031249995
2.372,0.045310019531249995,0.045768609,0.112558664,0.104195938,0.048630996
2.376,0.045309953124999996,0.045768477,0.112559844,0.104195609,0.048632004
2.38,0.045310355,0.045769414,0.112559703,0.104195273,0.04863207
2.384,0.045309586,0.045770555,0.11255870312499999,0.10419510156249999,0.048633546874999996
2.388,0.045310722656249997,0.045771828,0.112559508,0.104194703,0.048636597656249995
2.392,0.045310488,0.045772566,0.11256285937499999,0.104194094,0.048638172
2.396,0.045313374999999996,0.045772703,0.112564297,0.104193898,0.048636664062499994
2.4,0.045313539,0.045772836,0.112562961,0.10419413281249999,0.048635859
2.404,0.045314109374999995,0.045775117,0.11256195312499999,0.10419426562499999,0.048637805
2.408,0.045315117,0.045775281,0.112561883,0.104194734,0.048640957
2.412,0.045316257812499997,0.045774813,0.112563961,0.104195438,0.048641121093749996
2.416,0.045318035,0.045775684,0.11256547656249999,0.104196445,0.048643102
2.42,0.045319003906249995,0.045776355468749995,0.112563625,0.104197117,0.048643535
2.424,0.045320012,0.04577773,0.112561352,0.104197313,0.048644008
2.428,0.045321621,0.045778300781249996,0.112561516,0.10419782,0.04864491
2.432,0.045323766,0.045779070312499996,0.112563258,0.104197984,0.048645749999999995
2.436,0.045326648,0.045779406249999995,0.112563664,0.10419774999999999,0.048646754
2.44,0.045329633,0.045779207,0.112562391,0.10419774999999999,0.048648266
2.444,0.045329836,0.045779574,0.11256265624999999,0.10419815624999999,0.0486485
2.448,0.045329668,0.045780715,0.112564164,0.10419808593749999,0.048648164
2.452,0.045331309,0.045781554687499997,0.11256654687499999,0.104198055,0.048648129
2.456,0.045333289,0.045782156,0.11256805468749999,0.10419892187499999,0.048648434
2.46,0.045332418,0.045782023,0.112567414,0.10419982812499999,0.048650176
2.464,0.045332449,0.045782289062499995,0.11256647656249999,0.10420016406249999,0.048651953
2.468,0.045333758,0.045782289062499995,0.112566648,0.10420023437499999,0.04865393
2.472,0.045332113281249996,0.045782492187499996,0.11256654687499999,0.104200766,0.048653593749999995
2.476,0.045332281249999995,0.045782761718749995,0.11256675,0.10420190624999999,0.048653395
2.48,0.045333523437499995,0.045783363281249996,0.11256675,0.104203047,0.048652289
2.484,0.045333391,0.045784234374999996,0.112564703,0.104203953,0.048652355
2.488,0.04533493,0.045784605468749996,0.11256423437499999,0.104205563,0.048651515624999996
2.492,0.045334629,0.045784336,0.112565406,0.10420667187499999,0.048649941
2.496,0.045331546874999996,0.045784102,0.11256758593749999,0.104207945,0.048650945
2.5,0.045331145,0.045784469,0.112569063,0.104208719,0.04865202
2.504,0.045333355468749996,0.04578484,0.11256788281249999,0.10420895312499999,0.048651383
2.508,0.045333223,0.04578477,0.11256758593749999,0.104209719,0.048651551
2.512,0.045332684,0.045784738,0.112569766,0.104210625,0.048652523
2.516,0.045332418,0.045785309,0.112572477,0.10421132812499999,0.048652289
2.52,0.045331546874999996,0.04578618,0.112573516,0.10421160156249999,0.048651852
2.524,0.045331879,0.045787688,0.112573219,0.104211664,0.048652824218749995
2.528,0.045332113281249996,0.045787855,0.11257325,0.104212742,0.048653527343749996
2.532,0.045331879,0.045787117,0.11257432031249999,0.10421327343749999,0.048653395
2.536,0.045332449,0.045785945,0.11257526562499999,0.104214078,0.048651852
2.54,0.045332214843749996,0.045785676,0.11257435937499999,0.10421458593749999,0.048651215
2.544,0.045331277,0.045786078,0.11257285156249999,0.104214484,0.048652757812499996
2.548,0.045331309,0.045786683593749995,0.112572008,0.104214484,0.048652824218749995
2.552,0.045328629,0.045786246,0.112572344,0.10421334374999999,0.048652523
2.556,0.045330539,0.045786012,0.11257257812499999,0.10421397656249999,0.048651515624999996
2.56,0.045331109,0.045785742,0.112571344,0.104214414,0.048650008
2.564,0.045331949,0.045785945,0.11256993,0.10421367968749999,0.048649605468749996
2.568,0.045331578,0.04578541,0.112569633,0.104213305,0.048651617187499996
2.572,0.045330101562499996,0.04578477,0.112571672,0.104213547,0.048652457
2.576,0.045329938,0.045784570312499995,0.112573516,0.10421458593749999,0.048653359374999997
2.58,0.045327957,0.04578427,0.11257389062499999,0.104215586,0.048651281
2.584,0.045326617,0.045784402343749996,0.11257214843749999,0.104215859,0.048649641
2.588,0.045327421874999996,0.045784132812499996,0.112570938,0.10421575781249999,0.048649539
2.592,0.045330035,0.045784102,0.11257140624999999,0.104215859,0.048648867
2.596,0.045330941,0.045784300781249995,0.11257190624999999,0.104216695,0.048646855
2.6,0.045329098,0.045783429687499995,0.11257124218749999,0.104216828,0.048648266
2.604,0.04532893,0.045783867,0.11256966406249999,0.10421696093749999,0.048649035
2.608,0.045328257812499995,0.045784570312499995,0.11256943,0.104217031,0.048647863281249995
2.612,0.045328059,0.045784637,0.112570734,0.104217234,0.048646254
2.616,0.045328125,0.045784203,0.11257210937499999,0.10421716406249999,0.04864709
2.62,0.045326984,0.045784234374999996,0.11257275,0.10421693,0.048647559
2.624,0.04532675,0.045784605468749996,0.11257389062499999,0.104216828,0.048645785156249996
2.628,0.045326179687499996,0.045784438,0.112574289,0.10421699999999999,0.048645582031249995
2.632,0.045326953,0.04578477,0.11257506249999999,0.10421749999999999,0.048645047
2.636,0.045327355,0.045784738,0.112577109,0.10421736718749999,0.048644074
2.64,0.045329230468749995,0.045784234374999996,0.112577609,0.10421696093749999,0.048643973
2.644,0.045327188,0.045783398,0.112577539,0.10421693,0.048646152
2.648,0.04532343,0.045783094,0.112577273,0.10421666406249999,0.048646824218749996
2.652,0.04532182,0.045782593749999996,0.112577609,0.104216625,0.048646890624999994
2.656,0.045322492,0.045782691,0.112577945,0.10421659374999999,0.048646519531249995
2.66,0.045324102,0.045782996,0.11257700781249999,0.10421609374999999,0.048643535
2.664,0.045323934,0.045783531249999995,0.112575531,0.10421609374999999,0.048643605
2.668,0.04532407,0.045783965,0.112575195,0.10421582,0.048644207
2.672,0.045323667968749995,0.045783934,0.112576641,0.104216156,0.048645414062499996
2.676,0.045323902,0.04578427,0.112578914,0.10421729687499999,0.048645348
2.68,0.045324637,0.045783429687499995,0.112579219,0.10421803906249999,0.048645816
2.684,0.045322996,0.045782593749999996,0.11257841406249999,0.104218609,0.048647895
2.688,0.045321988281249996,0.045782457,0.112578484,0.104219844,0.048648363281249996
2.692,0.045320379,0.045782191,0.11257938281249999,0.10422202343749999,0.048648363281249996
2.696,0.045320047,0.045782258,0.112580797,0.104227891,0.048648867
2.7,0.045320012,0.045782289062499995,0.11258166406249999,0.10423526562499999,0.048650374999999996
2.704,0.045320246093749995,0.04578209,0.112582742,0.104241844,0.048652386718749996
2.708,0.045319242,0.045781082031249996,0.11258464843749999,0.104247906,0.04865202
2.712,0.045319644531249995,0.045780145,0.112586531,0.104253578,0.048651551
2.716,0.045319644531249995,0.045779238281249995,0.1125875,0.10425807031249999,0.04865118
2.72,0.045319879,0.045778468749999995,0.112587102,0.10426189062499999,0.048650207031249997
2.724,0.045319074,0.045778871,0.11258625781249999,0.104265375,0.048649874999999995
2.728,0.04531743,0.045780145,0.112587867,0.10426778906249999,0.048651215
2.732,0.045319242,0.045781887,0.112591594,0.104270172,0.048652422
2.736,0.045319105468749996,0.04578068,0.11259178906249999,0.10427144531249999,0.048652219
2.74,0.045316925781249996,0.045778805,0.11258833593749999,0.104268898,0.048650879
2.744,0.045317195312499996,0.045779441406249996,0.112582133,0.10426376562499999,0.048648934
2.748,0.045317093749999995,0.045779875,0.11257646874999999,0.104258773,0.04864709
2.752,0.045317296874999996,0.045779809,0.11257311718749999,0.10425447656249999,0.048644176
2.756,0.045316727,0.045779542968749996,0.112571672,0.104250594,0.048641895
2.76,0.045316121093749995,0.045780480468749996,0.11256993,0.10424599999999999,0.048640117
2.764,0.045317801,0.045780312499999996,0.112568688,0.104241172,0.048638809
2.768,0.045320047,0.045780445,0.112567688,0.10423704687499999,0.048638609374999996
2.772,0.045318301,0.045780210937499996,0.11256701562499999,0.10423392968749999,0.048638304687499995
2.776,0.045318203,0.045779574,0.112564969,0.104230977,0.048637199218749996
2.78,0.045318535,0.045779977,0.112562391,0.104227891,0.048636328124999996
2.784,0.045316625,0.045779977,0.11256111718749999,0.10422471093749999,0.0486375
2.788,0.045316054687499996,0.045779809,0.11256068,0.104221055,0.048637367187499995
2.792,0.045315953124999996,0.045779542968749996,0.112560273,0.104218172,0.048635355468749995
2.796,0.045315183593749996,0.045778973,0.112559703,0.10421525,0.048635992
2.8,0.045315117,0.045778973,0.112558938,0.10421307031249999,0.048636429687499996
2.804,0.045314984,0.045778636718749995,0.11255718749999999,0.10421056249999999,0.048637066
2.808,0.045315887,0.045778468749999995,0.112555414,0.104208445,0.048635223
2.812,0.045316391,0.045777797,0.112554641,0.104205695,0.048634953
2.816,0.04531582,0.045777363,0.112554578,0.10420318,0.048633578
2.82,0.045313676,0.045777293,0.11255364062499999,0.10420057031249999,0.048633813
2.824,0.045313105468749997,0.045777629,0.11255266406249999,0.10419815624999999,0.048634852
2.828,0.045314246093749996,0.045777461,0.11255212499999999,0.10419650781249999,0.048634316406249996
2.832,0.045311695,0.045776793,0.11255219531249999,0.10419442968749999,0.048633613281249995
2.836,0.045310859,0.045776253906249995,0.112553805,0.104192859,0.048632875
2.84,0.045311929687499995,0.045776187499999996,0.112552461,0.10419094531249999,0.048632707
2.844,0.04531059,0.045776055,0.11255078906249999,0.104188734,0.048633078
2.848,0.045309316,0.045776019531249997,0.112550617,0.104187391,0.048631801
2.852,0.045309417968749995,0.045776156,0.11255132,0.10418625,0.048631199
2.856,0.045310722656249997,0.045776289062499996,0.112551758,0.10418517968749999,0.048630496093749996
2.86,0.045310422,0.045776019531249997,0.112550922,0.104183969,0.048629789
2.864,0.04530791,0.045775184,0.112549281,0.10418219531249999,0.048629152343749996
2.868,0.045305395,0.045775352,0.112550281,0.10418028124999999,0.048629621
2.872,0.045305695,0.045775016,0.11255373437499999,0.104178438,0.048629758
2.876,0.04530566,0.045774714843749995,0.11255564843749999,0.104177367,0.048629621
2.88,0.045305496093749995,0.045775249999999996,0.11255397656249999,0.104176695,0.048627813
2.884,0.045306164,0.045775887,0.11255128906249999,0.10417532,0.048624460937499996
2.888,0.045304891,0.045775281,0.11255082,0.104173578,0.048624960937499996
2.892,0.045303816406249996,0.045774445312499995,0.112551227,0.104172375,0.048625230468749996
2.896,0.045304758,0.045774343749999995,0.112550891,0.104171836,0.048624227
2.9,0.045305695,0.045774043,0.112549109,0.104170258,0.048621242
2.904,0.045305828124999996,0.045774145,0.112546828,0.104168148,0.048622246093749995
2.908,0.045303113281249995,0.045773507812499996,0.112547297,0.10416667187499999,0.048624395
2.912,0.045302645,0.045772633,0.11254810156249999,0.104165164,0.048622347656249995
2.916,0.045302109374999996,0.045772265624999996,0.112549242,0.10416452343749999,0.048619566406249995
2.92,0.045301102,0.045772265624999996,0.112548477,0.10416352343749999,0.048619699
2.924,0.045300933593749995,0.045772836,0.11254763281249999,0.104162547,0.048620102
2.928,0.045300699,0.045773172,0.112547539,0.104162047,0.048619969
2.932,0.045300867187499996,0.045772602,0.11254659374999999,0.104160836,0.048618023
2.936,0.045299863,0.045771496093749996,0.11254592968749999,0.104160031,0.048617183593749995
2.94,0.045298753906249996,0.045771594,0.112543414,0.10415943,0.048617152
2.944,0.045296574218749996,0.045771828,0.112540594,0.104158727,0.048618121
2.948,0.045294933593749996,0.04577193,0.11253942187499999,0.104157484,0.048617152
2.952,0.04529366,0.045771094,0.112540063,0.104156852,0.04861591
2.956,0.045292688,0.045770488,0.112540023,0.104156281,0.04861591
2.96,0.045292988281249995,0.045770824,0.112537711,0.10415584374999999,0.048616246093749996
2.964,0.045293492,0.045770691,0.112535703,0.104154672,0.048615844
2.968,0.045292921874999996,0.045770152343749995,0.112536539,0.104153867,0.048615238
2.972,0.045292148,0.045769414,0.11253804687499999,0.104154297,0.048613797
2.976,0.045291211,0.045769082,0.112538078,0.104155406,0.048613160156249995
2.98,0.045291746093749995,0.04576868,0.112536367,0.104155945,0.048611351562499995
2.984,0.045293121,0.045768343749999996,0.11253345312499999,0.10415500781249999,0.04861182
2.988,0.045291847656249995,0.045768074218749996,0.11253103906249999,0.10415393,0.048612961
2.992,0.045290238,0.045767605,0.11253153906249999,0.10415315624999999,0.048613227
2.996,0.04528957,0.045766836,0.112531813,0.104152492,0.048612156249999997
3,0.045288964843749994,0.045766598,0.112530234,0.10415272656249999,0.048609676
3.004,0.045287523,0.045766499999999995,0.112527617,0.104152055,0.048609941406249996
3.008,0.045287559,0.045766836,0.112525539,0.10415128124999999,0.048609875
3.012,0.045287891,0.045766734,0.11252473437499999,0.104151148,0.048608367
3.016,0.04528652,0.045766230468749995,0.112524469,0.104151719,0.048608468749999995
3.02,0.04528568,0.04576566,0.112523125,0.10415211718749999,0.048609238281249995
3.024,0.04528434,0.045765324,0.112522828,0.104151648,0.048607695
3.028,0.045286418,0.045764387,0.112522188,0.10415064843749999,0.048607359
3.032,0.045286281,0.04576348,0.112522422,0.10414987499999999,0.048609707
3.036,0.045282563,0.045762711,0.11252423437499999,0.104150109,0.048610812499999996
3.04,0.045281453124999996,0.045762910156249996,0.11252353124999999,0.104149773,0.048610812499999996
3.044,0.045281188,0.04576348,0.112522188,0.104149438,0.048610042968749996
3.048,0.045280348,0.045763179687499995,0.11252178906249999,0.10414920312499999,0.048609105
3.052,0.045279980468749995,0.045763215,0.11252265624999999,0.104148133,0.048608031249999996
3.056,0.045279074,0.045762742,0.11252353124999999,0.10414696093749999,0.048607965
3.06,0.045279441406249996,0.045761937499999995,0.112523258,0.104146453,0.048608535
3.064,0.045277800781249995,0.045761672,0.11252228906249999,0.10414575,0.048608434
3.068,0.045276390624999996,0.045761605,0.112521719,0.10414571874999999,0.048609371
3.072,0.045275890624999995,0.045761437499999995,0.112522258,0.10414625,0.048609707
3.076,0.045276593749999997,0.045761871093749996,0.112522125,0.10414662499999999,0.048607160156249996
3.08,0.045277566,0.045761937499999995,0.11252071093749999,0.10414632,0.048606859
3.084,0.045277098,0.045761066406249995,0.112519203,0.104146117,0.048604578
3.088,0.04527723,0.045760230468749996,0.11251917187499999,0.10414551562499999,0.048604945312499995
3.092,0.045276793,0.045759859374999996,0.112519,0.104144508,0.04860441
3.096,0.045275019531249995,0.045759895,0.112519141,0.10414414062499999,0.048603504
3.1,0.045274984,0.045759996,0.112519,0.104144039,0.048603906249999995
3.104,0.045274715,0.045759625,0.11251833593749999,0.104143469,0.048604578
3.108,0.045273309,0.045758386718749995,0.112519,0.104143367,0.048604609374999996
3.112,0.045271195,0.045757109,0.112520313,0.10414357031249999,0.048603238281249996
3.116,0.045271765624999995,0.04575634,0.11252018,0.104142836,0.048602398
3.12,0.045271965,0.04575557,0.11251876562499999,0.104141828,0.048601863
3.124,0.045273207,0.0457555,0.11251672656249999,0.104142133,0.048600453
3.128,0.045271262,0.04575473,0.11251585156249999,0.10414260156249999,0.048601492
3.132,0.045270523437499995,0.045754766,0.11251625781249999,0.10414199218749999,0.048601996093749995
3.136,0.045268414,0.045753727,0.112516859,0.104140922,0.048600789
3.14,0.04526734,0.045752988,0.112516523,0.104140148,0.04859975
3.144,0.04526868,0.045752586,0.112514781,0.104138539,0.048596801
3.148,0.045269621,0.045752683593749996,0.11251360937499999,0.10413733593749999,0.048596730468749995
3.152,0.045268414,0.045752383,0.112514508,0.10413726562499999,0.048596566
3.156,0.045268414,0.045751914062499996,0.11251494531249999,0.104137367,0.048596062499999995
3.16,0.045266234,0.04575148,0.112513508,0.104137031,0.048596867
3.164,0.045266836,0.045750874999999996,0.11251128906249999,0.10413649999999999,0.048595960937499995
3.168,0.045266265624999996,0.045750035,0.112511055,0.104136031,0.048596898
3.172,0.045264656,0.045749800781249995,0.112512297,0.104136164,0.048596062499999995
3.176,0.045265094,0.045750238,0.112513742,0.104136531,0.04859375
3.18,0.045262879,0.045750305,0.11251286718749999,0.104136031,0.048593847656249994
3.184,0.045261508,0.045749800781249995,0.11251099218749999,0.104134953,0.048594387
3.188,0.045260836,0.045749300781249995,0.11251149218749999,0.104134383,0.048593882812499996
3.192,0.045259762,0.045748359,0.11251336718749999,0.104134117,0.048593816
3.196,0.045259125,0.045747789062499995,0.112513672,0.10413394531249999,0.048593781249999995
3.2,0.045259863,0.045748293,0.11251243,0.104133375,0.048593078124999994
3.204,0.045258121,0.045748293,0.112510859,0.104133281,0.048592273
3.208,0.045258789,0.045747621093749996,0.112509016,0.104132875,0.048591937499999995
3.212,0.045257316,0.045746281,0.112507977,0.10413260937499999,0.048591738
3.216,0.045259125,0.04574618,0.11250757,0.10413281249999999,0.048589859374999995
3.22,0.045258421874999996,0.045745914,0.11250710156249999,0.10413277343749999,0.048590863
3.224,0.04525802,0.045746082031249996,0.112505625,0.10413227343749999,0.048590531
3.228,0.045257684,0.045745543,0.112505797,0.10413170312499999,0.048589121
3.232,0.045257449218749995,0.045745176,0.112506734,0.104132711,0.048589523
3.236,0.04525698,0.045744773,0.112506797,0.104132438,0.048588852
3.24,0.045255875,0.045744605,0.112506461,0.104132172,0.048588754
3.244,0.045254499999999996,0.045744839843749996,0.112506094,0.104131938,0.048588953
3.248,0.045255167968749996,0.045745043,0.112505891,0.10413153124999999,0.048587242
3.252,0.045256008,0.045744,0.11250539062499999,0.10413170312499999,0.048585632812499994
3.256,0.045256441,0.045743699218749996,0.112505461,0.104131938,0.048585332
3.26,0.045257047,0.045743765624999995,0.112504352,0.10413277343749999,0.048585398437499996
3.264,0.045256207031249995,0.045743031249999996,0.11250328124999999,0.104133578,0.048585667968749996
3.268,0.045253828,0.045741855468749995,0.11250385156249999,0.104133047,0.048586707031249995
3.272,0.045253527343749995,0.045741753906249995,0.11250375,0.104131633,0.048587847656249995
3.276,0.045253023,0.045741988,0.112503047,0.104131266,0.048587949218749996
3.28,0.045253257812499996,0.045742191,0.11250116406249999,0.104131336,0.048588484
3.284,0.045252422,0.045742762,0.112498891,0.10413103124999999,0.04859016
3.288,0.045252621,0.045742695,0.11249714062499999,0.10413123437499999,0.048592308593749994
3.292,0.045251852,0.045742324,0.112497711,0.104132008,0.048591434
3.296,0.045251312499999995,0.045742124999999995,0.112497008,0.104132305,0.048589589843749996
3.3,0.04525091,0.04574209,0.11249382031249999,0.10413190624999999,0.048588820312499996
3.304,0.04525148,0.045742492,0.112490773,0.10413153124999999,0.048588688
3.308,0.04525202,0.045742594,0.11248879687499999,0.10413136718749999,0.048586371
3.312,0.045251449218749996,0.045742058593749996,0.11248825781249999,0.104131133,0.048584527343749996
3.316,0.045251816,0.045741019531249996,0.112487117,0.104131203,0.048583656249999996
3.32,0.045247758,0.04573998,0.112485539,0.104131336,0.048585098
3.324,0.045246387,0.045740078,0.11248393,0.104131203,0.048585667968749996
3.328,0.045246453124999995,0.045740078,0.11248343,0.104131672,0.048585937499999995
3.332,0.045247859,0.045740648437499996,0.11248369531249999,0.10413186718749999,0.048583054687499995
3.336,0.04524766,0.045740113,0.112482859,0.10413207031249999,0.048581644531249996
3.34,0.045247324218749996,0.04573998,0.11248108593749999,0.104132102,0.048581945
3.344,0.045245715,0.04574018,0.112480781,0.104132438,0.048582449
3.348,0.045243402343749996,0.045740816406249996,0.112481484,0.10413277343749999,0.048583621
3.352,0.045243973,0.045741352,0.11248366406249999,0.10413281249999999,0.048582683593749995
3.356,0.045245210937499995,0.04574018,0.112482797,0.10413220312499999,0.048580203
3.36,0.045244542968749996,0.045739309,0.112480781,0.104131836,0.04858141
3.364,0.04524568,0.045740449,0.112478906,0.104131203,0.048580203
3.368,0.045246285156249996,0.045740383,0.11247792968749999,0.104130594,0.048578895
3.372,0.045245042968749996,0.045738773,0.112477828,0.104130398,0.048580035
3.376,0.045243938,0.045737633,0.112478234,0.104131,0.048578593749999996
3.38,0.045244809,0.045737801,0.11247722656249999,0.10413116406249999,0.048578324218749996
3.384,0.045240887,0.045737867187499996,0.11247702343749999,0.10413116406249999,0.048580973
3.388,0.045240351562499996,0.045738234,0.11247857,0.10413153124999999,0.048582348
3.392,0.045241926,0.045737968749999997,0.11247991406249999,0.104131836,0.04858084
3.396,0.045240383,0.045736961,0.11248000781249999,0.104131766,0.048580809
3.4,0.045240215,0.045736961,0.112479141,0.10413186718749999,0.048580305
3.404,0.045238438,0.045736289,0.11247896874999999,0.104131672,0.048579902343749995
3.408,0.045238035156249995,0.045736023437499995,0.112478734,0.104131672,0.048578059
3.412,0.0452375,0.045734816406249997,0.11247987499999999,0.104132844,0.048576383
3.416,0.045236426,0.045733977,0.11248108593749999,0.104134383,0.048576383
3.42,0.045234917968749996,0.045733207,0.112479813,0.10413385156249999,0.048577019531249994
3.424,0.045234449,0.045733441,0.112478734,0.104133375,0.048575609374999995
3.428,0.045234852,0.045732667968749995,0.112479039,0.104133344,0.048574468749999995
3.432,0.045235152,0.045731598,0.112479578,0.10413277343749999,0.048572926
3.436,0.045232238281249997,0.045731460937499996,0.11247991406249999,0.10413227343749999,0.048573496093749995
3.44,0.045233043,0.045732535,0.112479977,0.104132711,0.048573632812499996
3.444,0.045231668,0.045732871093749995,0.112479773,0.104133047,0.048573328124999995
3.448,0.045229824,0.045732938,0.112480313,0.10413351562499999,0.048575105
3.452,0.045231531,0.045732804687499996,0.112481117,0.104134586,0.048573664
3.456,0.045230629,0.045731695,0.112481219,0.104135523,0.048572996
3.46,0.045229253906249996,0.045732367,0.11248074999999999,0.104136398,0.048574738281249995
3.464,0.045229152343749995,0.045732098,0.11247950781249999,0.10413807,0.048575609374999995
3.468,0.045228949218749995,0.045731262,0.112479477,0.104144406,0.048575375
3.472,0.045228984374999996,0.045730156,0.11248000781249999,0.104151648,0.048574371
3.476,0.045228882812499996,0.045730121,0.11247964062499999,0.10415782,0.048574468749999995
3.48,0.045226738,0.045730625,0.112479141,0.10416368749999999,0.048574773437499996
3.484,0.045225363,0.04573116,0.11247830468749999,0.10416908593749999,0.048575273
3.488,0.045225664,0.045730960937499995,0.112477797,0.104173078,0.048575477
3.492,0.045224055,0.045730289,0.112477695,0.104176328,0.048574703
3.496,0.045222883,0.045730421874999996,0.11247806249999999,0.104179547,0.048575008
3.5,0.045224156,0.045730859374999995,0.112476555,0.104182164,0.048574605
3.504,0.045225094,0.045731128906249995,0.11247568749999999,0.104183633,0.048574468749999995
3.508,0.045226133,0.045730691406249996,0.11247639062499999,0.104184578,0.048573699218749995
3.512,0.045223652,0.045729718749999995,0.11247813281249999,0.10418434374999999,0.048573465
3.516,0.045223621,0.045728914,0.11247806249999999,0.104181258,0.048572828124999995
3.52,0.045224089843749996,0.04572848,0.112475789,0.10417609374999999,0.048574102
3.524,0.045223988281249995,0.045728781249999996,0.11247410937499999,0.104170727,0.048576449
3.528,0.045223152343749996,0.045728277,0.112474813,0.104166406,0.048575273
3.532,0.045224156,0.045726937499999995,0.112475516,0.104162617,0.048574605
3.536,0.04522325,0.045726734,0.11247568749999999,0.104159063,0.048576414
3.54,0.045220667968749996,0.04572734,0.112474414,0.10415564062499999,0.048576648437499995
3.544,0.045220637,0.045727605468749995,0.112473844,0.10415245312499999,0.048577488
3.548,0.0452205,0.045728176,0.11247460937499999,0.10414953906249999,0.048577488
3.552,0.045220066406249995,0.045728242,0.112475086,0.104146586,0.048576984
3.556,0.045220738,0.045726566406249995,0.11247353906249999,0.104142297,0.048575074
3.56,0.045219262,0.045725593749999995,0.112471695,0.104138813,0.048578527
3.564,0.045219328,0.045726398437499996,0.11247025781249999,0.104135359,0.048578828
3.568,0.045220703,0.045726332,0.112468508,0.104131969,0.048575676
3.572,0.045219628906249996,0.045725965,0.112468578,0.104129258,0.048575676
3.576,0.045219262,0.045725898437499995,0.112468508,0.104126672,0.048575242
3.58,0.045218086,0.045725695312499995,0.11246515624999999,0.104123992,0.048573632812499996
3.584,0.045215605468749996,0.045725293,0.112463445,0.104121547,0.048575074
3.588,0.045215035,0.045724523,0.11246328124999999,0.104119031,0.048576047
3.592,0.045213761718749995,0.045723383,0.112465125,0.104117617,0.048576547
3.596,0.045212254,0.045722043,0.11246556249999999,0.10411534374999999,0.048574938
3.6,0.045211414,0.045721503906249995,0.112465055,0.10411265624999999,0.048575207
3.604,0.045212957,0.045721973,0.112464148,0.104109977,0.048574336
3.608,0.045212758,0.045721874999999995,0.112463883,0.10410779687499999,0.048573465
3.612,0.045212289,0.045721137,0.112465461,0.10410605468749999,0.048572761718749996
3.616,0.045210609374999995,0.045720398,0.11246646874999999,0.10410525,0.048573968749999995
3.62,0.045210542968749996,0.045720902343749995,0.11246543,0.10410417968749999,0.048573597656249995
3.624,0.045209875,0.045721203,0.11246482031249999,0.104102633,0.048571051
3.628,0.045210445,0.045720531249999995,0.11246378124999999,0.104100922,0.048570145
3.632,0.045209906,0.045719895,0.11246287499999999,0.104099484,0.048570313
3.636,0.045210746,0.045720434,0.11246287499999999,0.10409868,0.048569141
3.64,0.045208668,0.045720632812499995,0.11246318,0.104097336,0.048569039
3.644,0.045208434,0.045721203,0.112462711,0.104095898,0.048568906249999995
3.648,0.045208063,0.045720801,0.11246170312499999,0.104095328,0.048568199
3.652,0.045207828124999995,0.045719727,0.11246237499999999,0.104094016,0.048567461
3.656,0.045207594,0.045719629,0.112463109,0.104092844,0.048566792968749994
3.66,0.045207828124999995,0.04571966,0.11246167187499999,0.10409220312499999,0.048566121
3.664,0.045207996,0.045719293,0.112459656,0.104091641,0.048565316406249996
3.668,0.045208597656249995,0.045718855,0.112458789,0.104091031,0.048562703124999995
3.672,0.045205917968749995,0.045717281,0.112460063,0.10409053124999999,0.048562133
3.676,0.045204609374999996,0.045716879,0.112460969,0.104090266,0.048563273
3.68,0.045203066,0.04571691,0.11246099999999999,0.10408946093749999,0.048563875
3.684,0.045201289,0.045716945,0.112460695,0.104088656,0.048563977
3.688,0.045199949,0.045716710937499995,0.112460563,0.104087781,0.048562031
3.692,0.045200621,0.045716578,0.112460602,0.104085969,0.048559418
3.696,0.045201793,0.045716273437499996,0.11245993,0.10408476562499999,0.048557875
3.7,0.045201223,0.045715871,0.112458586,0.10408365624999999,0.048557269531249996
3.704,0.04519948,0.045715570312499995,0.11245767968749999,0.104082719,0.048557472656249996
3.708,0.045198742187499995,0.045715336,0.112458188,0.10408175,0.048557137
3.712,0.045198441,0.045714632812499996,0.112459289,0.104080609,0.048557406
3.716,0.045196664062499996,0.045713492187499996,0.112458617,0.104078898,0.048556734
3.72,0.045196363,0.045713426,0.112457617,0.104078227,0.048557605
3.724,0.045194550781249995,0.045713359,0.11245767968749999,0.10407735156249999,0.048558008
3.728,0.045194016,0.045713289062499995,0.11245710937499999,0.104076281,0.048556266
3.732,0.045194184,0.045713156,0.11245835156249999,0.104075344,0.048553414062499994
3.736,0.045193410156249995,0.045712652,0.112460195,0.104074672,0.048554957
3.74,0.045192742187499996,0.045712351562499996,0.112459828,0.104074305,0.048554152
3.744,0.045192742187499996,0.045712249999999996,0.112458047,0.10407389843749999,0.048553313
3.748,0.045192574218749997,0.045712417968749995,0.112459086,0.10407332812499999,0.048552813
3.752,0.045191836,0.045711984,0.112460398,0.104072594,0.048552008
3.756,0.045193511718749996,0.045711648437499995,0.11245885156249999,0.104072227,0.048551269531249996
3.76,0.045193914,0.045710641,0.11245767968749999,0.10407132031249999,0.048551167968749996
3.764,0.045192910156249995,0.045710004,0.112458281,0.10407124999999999,0.048550801
3.768,0.045189555,0.045709133,0.112459859,0.104072188,0.048553113
3.772,0.045188886718749995,0.045709234,0.112460602,0.10407165624999999,0.048552644531249994
3.776,0.045189824,0.0457095,0.11245993,0.104070984,0.048550296874999996
3.78,0.045188886718749995,0.045709836,0.11245918749999999,0.104070813,0.048551301
3.784,0.045188281,0.045710406249999995,0.11245842187499999,0.104070516,0.048550566406249995
3.788,0.045187945,0.04570977,0.11245781249999999,0.104069641,0.048549391
3.792,0.045187679687499996,0.045707624999999995,0.112458453,0.10406900781249999,0.048548351562499995
3.796,0.045188281,0.045706785,0.112458086,0.10406867187499999,0.048548117187499996
3.8,0.045187914,0.04570682,0.112457445,0.104068703,0.048548418
3.804,0.045187277,0.045706382812499995,0.112456672,0.10406833593749999,0.048548152
3.808,0.045186371,0.045705813,0.112457281,0.10406853906249999,0.048548754
3.812,0.045186707031249995,0.045704641,0.112457242,0.10406857,0.04854882
3.816,0.045187711,0.045704304687499996,0.112457445,0.104068398,0.048547347656249996
3.82,0.045187777,0.045704875,0.11245627343749999,0.104068,0.048545503906249995
3.824,0.045186269531249997,0.045705008,0.11245432812499999,0.104067797,0.048545168
3.828,0.045183957,0.045704472656249995,0.112453555,0.104067398,0.048546238
3.832,0.045183621,0.045704304687499996,0.1124545,0.104066156,0.048546406
3.836,0.045183117187499997,0.045704004,0.112455133,0.10406498437499999,0.048546441406249995
3.84,0.04518218,0.04570377,0.11245439843749999,0.10406327343749999,0.048545234374999996
3.844,0.045181273437499996,0.045703938,0.11245365624999999,0.104061898,0.048546003906249996
3.848,0.04518141,0.045703633,0.11245385937499999,0.10406116406249999,0.048546238
3.852,0.045181609,0.045703734,0.112454063,0.104060258,0.048545266
3.856,0.045182547,0.045703871,0.11245295312499999,0.104059414,0.04854359
3.86,0.04518,0.045703566,0.112452219,0.10405888281249999,0.048543254
3.864,0.045178523,0.045703836,0.112452148,0.104058242,0.048543559
3.868,0.045180469,0.045703938,0.112451344,0.10405750781249999,0.048543793
3.872,0.045183117187499997,0.045703703124999995,0.11245017187499999,0.10405743749999999,0.048542449
3.876,0.045181374999999996,0.045702695,0.112449297,0.10405689843749999,0.048541883
3.88,0.045179093749999996,0.045702562499999995,0.11244678124999999,0.10405626562499999,0.048542851562499996
3.884,0.045178828,0.045702797,0.11244544531249999,0.10405592968749999,0.048541547
3.888,0.045178926,0.045701555,0.11244631249999999,0.10405657,0.048540473
3.892,0.045178660156249995,0.04570075,0.11244842968749999,0.10405757,0.048540473
3.896,0.045174973,0.045700516,0.112449234,0.10405750781249999,0.048539199218749995
3.9,0.045173293,0.045700953,0.112448156,0.10405743749999999,0.048538965
3.904,0.045173797,0.045701253906249996,0.112447922,0.10405710156249999,0.048538996093749995
3.908,0.045173027,0.045700281249999995,0.112447117,0.10405657,0.048539902
3.912,0.045172727,0.045699578,0.112447453,0.10405606249999999,0.048539234
3.916,0.045173965,0.045699813,0.11244625,0.10405556249999999,0.048537859
3.92,0.045175641,0.045700011718749996,0.112443938,0.104054789,0.048537355468749994
3.924,0.045173027,0.045699277,0.11244249218749999,0.10405375,0.048536984374999995
3.928,0.045170344,0.045698738,0.112442563,0.104052711,0.048537488
3.932,0.045169605,0.045698137,0.112443094,0.10405203906249999,0.048537223
3.936,0.045169339843749996,0.045697398437499995,0.11244366406249999,0.10405190624999999,0.04853682
3.94,0.045169035156249995,0.045697601562499995,0.11244407031249999,0.10405237499999999,0.048538359
3.944,0.045169707,0.045697128906249995,0.11244266406249999,0.104052273,0.048536852
3.948,0.045169809,0.045695688,0.112441859,0.104051938,0.048535914
3.952,0.045166859,0.045695086,0.11244303124999999,0.104052313,0.048537355468749994
3.956,0.045166859,0.04569552,0.112442727,0.104052313,0.048537691
3.96,0.045166758,0.045695688,0.11244124999999999,0.10405207812499999,0.048535914
3.964,0.045166992,0.045695488281249995,0.112440078,0.104051805,0.048535512
3.968,0.045166758,0.045694949218749996,0.11244074999999999,0.104051234,0.048534168
3.972,0.04516498,0.045695152343749997,0.112442359,0.10405107,0.048533836
3.976,0.045164008,0.045695656,0.11244332812499999,0.104050898,0.048533531
3.98,0.045165852,0.045695555,0.11244132,0.10405120312499999,0.048531957031249996
3.984,0.045165316406249996,0.045694816,0.112440414,0.104050734,0.048531488
3.988,0.045163203124999995,0.045694547,0.11243997656249999,0.104049523,0.04852998
3.992,0.045162766,0.045694215,0.112439578,0.10404905468749999,0.048529175781249996
3.996,0.045161792968749996,0.04569334,0.112439406,0.104048523,0.048530582
4,0.045161792968749996,0.045693645,0.11243830468749999,0.104048688,0.048529477
4.004,0.045159348,0.045693008,0.11243857,0.10404855468749999,0.048529242187499995
4.008,0.045159449218749995,0.045692167968749996,0.11243830468749999,0.104048688,0.04853018
4.012,0.045158008,0.045691633,0.11243846874999999,0.104047781,0.048529508
4.016,0.045156328,0.045691566406249995,0.11243907,0.104047281,0.048528703124999996
4.02,0.045156801,0.045691531,0.112437836,0.104047211,0.048527766
4.024,0.045154922,0.045691566406249995,0.112436625,0.104047148,0.048528402
4.028,0.045153313,0.045691195312499995,0.11243739843749999,0.104047281,0.048528504
4.032,0.045153582,0.045690492,0.11243857,0.10404738281249999,0.048529676
4.036,0.04515375,0.045690054687499995,0.11243807,0.104047211,0.048529508
4.04,0.04515452,0.04568982,0.112435953,0.104047617,0.048530449
4.044,0.045152609,0.045689621,0.112434719,0.10404738281249999,0.048530918
4.048,0.045152945,0.045689855,0.112434547,0.10404767968749999,0.048528738
4.052,0.045152441,0.045688847656249996,0.112434516,0.10404738281249999,0.048527332031249995
4.056,0.045152609,0.045688949,0.11243461718749999,0.104047281,0.048525218749999995
4.06,0.045151301,0.045688347656249996,0.11243475,0.10404775,0.048523910156249996
4.064,0.04515073,0.045687542968749995,0.112435422,0.104047781,0.048524043
4.068,0.045149925781249996,0.045687003906249996,0.11243817187499999,0.10404808593749999,0.048524949218749995
4.072,0.045150093749999995,0.045686367,0.11244158593749999,0.10404805468749999,0.048523711
4.076,0.045150093749999995,0.045686234374999996,0.112444875,0.104047445,0.048523508
4.08,0.045150328,0.045686602,0.11244635156249999,0.104047547,0.048522535
4.084,0.04514748,0.045686703,0.11244618,0.10404677343749999,0.048521699
4.088,0.045145969,0.045685934,0.112447023,0.104046172,0.048521531
4.092,0.045145734374999996,0.045685261718749995,0.112448531,0.104046813,0.048522101562499996
4.096,0.045144527,0.045684992187499995,0.11244926562499999,0.10404801562499999,0.048523207031249994
4.1,0.045142617,0.045685160156249995,0.112449102,0.104048859,0.048522535
4.104,0.045141848,0.045685664,0.112448898,0.104049492,0.048521262
4.108,0.045142012,0.045685363281249995,0.112449234,0.104049828,0.048519785156249995
4.112,0.045140839843749996,0.045684422,0.112450539,0.104049898,0.048519718749999996
4.116,0.045140941406249996,0.045683953124999996,0.112450477,0.104050031,0.048517844
4.12,0.045141007812499995,0.045683617,0.11244772656249999,0.10404993,0.04851573
4.124,0.045141746,0.045683249999999995,0.11244470312499999,0.10404932812499999,0.048515262
4.128,0.045141074,0.04568241,0.11244232812499999,0.104048859,0.048517003906249995
4.132,0.045140438,0.045680566,0.11244095312499999,0.10404882,0.048517238
4.136,0.045138929687499996,0.045680164,0.11244128906249999,0.104049289,0.048517676
4.14,0.045140238281249995,0.045680800781249996,0.112439742,0.10404979687499999,0.048519184
4.144,0.045141777343749995,0.045681070312499995,0.112437164,0.10404993,0.048519922
4.148,0.045141445,0.045680066,0.112437734,0.104049563,0.048519449218749996
4.152,0.045139867187499995,0.045679261718749996,0.112439813,0.10404875781249999,0.048516902343749994
4.156,0.045139765624999995,0.045679191,0.11243967968749999,0.10404871874999999,0.0485165
4.16,0.045139063,0.045679629,0.11243722656249999,0.104049492,0.048516266
4.164,0.045138594,0.045679898,0.112435352,0.104049898,0.048515996
4.168,0.045138594,0.045680132812499996,0.11243582031249999,0.10405029687499999,0.048514859
4.172,0.045138461,0.045679563,0.11243756249999999,0.104051469,0.048514422
4.176,0.045139031249999996,0.045678992187499996,0.112437734,0.104053047,0.048514457
4.18,0.045138527,0.045679160156249995,0.112435453,0.10405361718749999,0.048512644531249996
4.184,0.045139195,0.045679395,0.112433773,0.104053648,0.048511605468749996
4.188,0.045141176,0.045679328124999995,0.11243367187499999,0.10405328124999999,0.048508890624999995
4.192,0.045137824,0.045677383,0.11243602343749999,0.104053016,0.048508051
4.196,0.045137992187499996,0.045677348,0.112437328,0.104054352,0.048508086
4.2,0.045137754,0.045677719,0.112436055,0.104054758,0.048509727
4.204,0.04513648,0.045677113,0.11243475,0.104055094,0.048509961
4.208,0.045135007812499996,0.04567668,0.112436328,0.10405867968749999,0.048507953124999996
4.212,0.045135074218749995,0.045675875,0.11243726562499999,0.104065219,0.048507348
4.216,0.045135477,0.045675371,0.112435758,0.104071758,0.048506609374999995
4.22,0.045135242,0.045675406249999995,0.112433609,0.10407789062499999,0.048507953124999996
4.224,0.045134301,0.045676109374999996,0.11243320312499999,0.104084461,0.048508890624999995
4.228,0.045132859,0.045676242,0.112433438,0.104090094,0.048509492187499996
4.232,0.045132996093749995,0.045676445,0.11243337499999999,0.104095289,0.048508656
4.236,0.045131921874999995,0.045676309,0.112433711,0.104100688,0.048508519531249995
4.24,0.04513048,0.045676813,0.11243257,0.104105281,0.048507917968749995
4.244,0.045129543,0.045676210937499996,0.112431359,0.104108703,0.048506645
4.248,0.045129574218749996,0.045674867187499996,0.112430188,0.104112891,0.048505438
4.252,0.04512907,0.045673929687499996,0.112430023,0.10411651562499999,0.048505504
4.256,0.045129640624999995,0.045673863,0.112430391,0.104119266,0.048506812499999996
4.26,0.045129640624999995,0.04567423,0.112429281,0.104121977,0.048506507812499995
4.264,0.045129945312499996,0.045674465,0.11242710156249999,0.104124492,0.048506176
4.268,0.045129609,0.045673797,0.11242553124999999,0.104127813,0.048506074
4.272,0.045129105,0.045673023437499995,0.11242553124999999,0.104131469,0.048506441406249996
4.276,0.045128804687499996,0.045672453,0.11242515624999999,0.104134922,0.048506007812499995
4.28,0.045128499999999995,0.04567232,0.11242311718749999,0.10413857812499999,0.048504699218749996
4.284,0.045126894531249996,0.045672187499999996,0.11242318,0.104141391,0.048505871
4.288,0.04512602,0.045672117,0.112424555,0.10414323437499999,0.048505839843749995
4.292,0.045125047,0.045671949,0.112425766,0.104145211,0.048505203
4.296,0.045125921874999995,0.045671816406249996,0.112425328,0.10414675781249999,0.048505636718749995
4.3,0.045125082,0.045671546874999996,0.11242361718749999,0.10414779687499999,0.048508488
4.304,0.045124176,0.045671546874999996,0.112423016,0.104149938,0.048510031249999995
4.308,0.045123172,0.045671785,0.112423484,0.104151922,0.04850909
4.312,0.045121227,0.045671714843749996,0.112424758,0.10415215624999999,0.048509593749999996
4.316,0.045120152,0.045671852,0.112424391,0.104152555,0.048511605468749996
4.32,0.045121460937499996,0.045671785,0.112421906,0.10415252343749999,0.048511406
4.324,0.045122469,0.045672085937499995,0.112419859,0.10415044531249999,0.048511539
4.328,0.045120488281249996,0.045670543,0.112420367,0.104147563,0.048509023
4.332,0.045118374999999995,0.045669101562499995,0.112421305,0.104144211,0.048508992187499995
4.336,0.045118543,0.045669504,0.11242009374999999,0.104137906,0.048510363281249996
4.34,0.045119449218749996,0.04567041,0.112417586,0.104128984,0.048510363281249996
4.344,0.04512116,0.045670879,0.112415172,0.104120672,0.048509461
4.348,0.045117707031249996,0.045669871093749995,0.11241416406249999,0.104113328,0.048510632812499996
4.352,0.045115059,0.045669504,0.112413758,0.104106859,0.048511738
4.356,0.045116363281249995,0.045669972656249995,0.112411813,0.104100523,0.048510164
4.36,0.045115996,0.045670309,0.112408461,0.104094719,0.048510164
4.364,0.045115156249999996,0.04566957,0.11240625,0.10408946093749999,0.048509629
4.368,0.045115023,0.045668933593749995,0.112405047,0.104084125,0.048510063
4.372,0.045114621,0.045668328,0.112404508,0.10407846093749999,0.048507683593749996
4.376,0.045114992,0.045668062499999995,0.11240386718749999,0.104073797,0.048507953124999996
4.38,0.045114855,0.04566823,0.11240058593749999,0.10406907,0.048508254
4.384,0.045116398,0.045668129,0.112398336,0.104065047,0.048507348
4.388,0.045115593749999995,0.045667191406249995,0.11239864062499999,0.10406092187499999,0.048506844
4.392,0.045113547,0.045666219,0.11239984374999999,0.104057375,0.048506543
4.396,0.045114086,0.045665882812499996,0.112399445,0.104054586,0.048507683593749996
4.4,0.045113715,0.045665582,0.112397867,0.10405107,0.048508051
4.404,0.045114554687499996,0.045666082,0.112398039,0.104047414,0.048508355
4.408,0.045114152,0.045666117,0.112399914,0.10404393,0.048506945
4.412,0.045112777,0.045665918,0.112403102,0.104040813,0.048506105
4.416,0.045112176,0.04566575,0.11240528124999999,0.10403825781249999,0.04850641
4.42,0.045112008,0.045665949218749995,0.112404305,0.104035211,0.048506844
4.424,0.045111773437499995,0.045665348,0.112403102,0.104032359,0.04850691
4.428,0.045111371,0.045665211,0.112403602,0.104029781,0.048506477
4.432,0.04511073,0.045665145,0.11240474218749999,0.104027094,0.048506207
4.436,0.045111402343749996,0.045664676,0.11240457,0.104025383,0.048505371
4.44,0.045110496,0.045664207,0.112402695,0.104023305,0.048505336
4.444,0.04510882,0.045663703124999996,0.112401727,0.104021398,0.048506039
4.448,0.045107414,0.045662933593749996,0.112402594,0.104019953,0.048504934
4.452,0.045107512,0.045663301,0.11240386718749999,0.104018945,0.048503527
4.456,0.045106875,0.045663234,0.112403602,0.104017945,0.04850282
4.46,0.045106676,0.045663031,0.11240196093749999,0.104016773,0.048503726562499995
4.464,0.045105871,0.045663336,0.112399914,0.10401506249999999,0.048503594
4.468,0.045106309,0.045663434,0.11239988281249999,0.104013352,0.048502754
4.472,0.045105031,0.045663066,0.11239997656249999,0.104011977,0.048503223
4.476,0.045104027,0.045662898437499995,0.11239823437499999,0.10401049999999999,0.048503492
4.48,0.045102719,0.045662796874999995,0.112395719,0.104009563,0.048503055
4.484,0.045102184,0.045663805,0.112387945,0.10400842187499999,0.048502922
4.488,0.04510168,0.045663133,0.112380398,0.104007383,0.048500641
4.492,0.045102046874999996,0.045662128906249995,0.112376578,0.104006781,0.048499199
4.496,0.045100977,0.045661625,0.11237403124999999,0.104005133,0.048498664062499995
4.5,0.045101043,0.045660852,0.112372055,0.104003125,0.04849873
4.504,0.045101043,0.045660484,0.112371953,0.10400211718749999,0.048500141
4.508,0.045100105,0.045660754,0.112377219,0.10400134374999999,0.048499836
4.512,0.045098394531249995,0.04566052,0.11238274999999999,0.10400087499999999,0.048497792968749995
4.516,0.045098426,0.045660047,0.112385359,0.103999641,0.048494371093749995
4.52,0.045096551,0.045659847656249995,0.112387172,0.103997992,0.048495313
4.524,0.045096551,0.045660047,0.112388148,0.103996617,0.048495379
4.528,0.045096551,0.045659242,0.11238817968749999,0.103996117,0.048494843749999995
4.532,0.045095511718749995,0.045658203,0.11238519531249999,0.10399575,0.048496214843749996
4.536,0.045095477,0.045657566406249996,0.112381844,0.103993969,0.048495882812499995
4.54,0.045094809,0.045657535,0.112378492,0.10399253124999999,0.048495176
4.544,0.045094707,0.045657133,0.112376273,0.103992023,0.04849434
4.548,0.045093801,0.04565673,0.11237725,0.10399178906249999,0.048492328
4.552,0.045094203124999996,0.045656527343749996,0.112378789,0.103991258,0.048490953
4.556,0.045094539,0.04565616,0.112380906,0.10399074999999999,0.048490852
4.56,0.045093633,0.045656293,0.11237805468749999,0.10399017968749999,0.048490082
4.564,0.045093499999999995,0.045655925781249995,0.112375508,0.10398984374999999,0.048490953
4.568,0.04509568,0.045655422,0.11237403124999999,0.103988773,0.048489847656249994
4.572,0.045094406249999996,0.04565475,0.11237296093749999,0.103987367,0.048489711
4.576,0.045093933593749996,0.045654582031249995,0.11237050781249999,0.103986094,0.048490215
4.58,0.045094269531249995,0.04565482,0.11236910156249999,0.10398585937499999,0.048489277
4.584,0.045095074218749996,0.045655355,0.11236765624999999,0.103985086,0.048488238
4.588,0.045095277,0.04565475,0.11236575,0.103984953,0.04848857
4.592,0.045094336,0.045653914062499995,0.112365547,0.10398525,0.048487601562499996
4.596,0.045091656,0.045653644531249996,0.1123685,0.103985156,0.048487969
4.6,0.045090414,0.045653141,0.11237299218749999,0.10398525,0.048489476562499995
4.604,0.045091050781249996,0.045652773437499995,0.11237778124999999,0.103985492,0.048489242
4.608,0.045092594,0.045653042968749995,0.11238157,0.103985758,0.048487266
4.612,0.04509048,0.045653008,0.11238207812499999,0.103986125,0.048487566406249995
4.616,0.045086793,0.045653074,0.11238110156249999,0.103985352,0.048489176
4.62,0.045087465,0.045653812499999995,0.11237872656249999,0.10398394531249999,0.048488035
4.624,0.045087531,0.045653945,0.112380164,0.10398317187499999,0.048487199
4.628,0.04508582,0.045653512,0.11238740624999999,0.103981969,0.048487499999999996
4.632,0.045085652,0.045654015624999995,0.112395086,0.103982273,0.04848666
4.636,0.045084347656249996,0.045654215,0.11240088281249999,0.10398240624999999,0.048486965
4.64,0.045084515624999995,0.045654215,0.11240433593749999,0.103982469,0.048489074
4.644,0.045084847656249996,0.045654148,0.11240792968749999,0.103982805,0.048486563
4.648,0.045083039,0.045653074,0.112412281,0.10398283593749999,0.048484550781249997
4.652,0.045082937499999996,0.045652438,0.112415172,0.103982672,0.048484312499999994
4.656,0.045082602,0.045653074,0.11241000781249999,0.10398274218749999,0.048484918
4.66,0.045080925781249996,0.045652809,0.112404641,0.103982641,0.048485891
4.664,0.045081664,0.045652203,0.11240528124999999,0.10398274218749999,0.048486257812499996
4.668,0.045080895,0.045651734374999996,0.11240980468749999,0.103982469,0.048487398437499996
4.672,0.045080457,0.045650695312499996,0.11241399218749999,0.103981266,0.048485992
4.676,0.045079652,0.045649656,0.11241731249999999,0.10397992187499999,0.048484984
4.68,0.04507868,0.045649890624999995,0.11241952343749999,0.103978984,0.048485453
4.684,0.04507925,0.045650023,0.11242063281249999,0.10397817968749999,0.04848475
4.688,0.045078277,0.045648918,0.112423352,0.10397831249999999,0.048483844
4.692,0.045079148,0.045648246,0.11242660156249999,0.10397797656249999,0.048483711
4.696,0.045077203,0.045648312499999996,0.112427906,0.10397714062499999,0.048483644531249995
4.7,0.045077105468749996,0.045649387,0.112428445,0.10397643749999999,0.048481063
4.704,0.045077809,0.045649957,0.11242727343749999,0.103975266,0.048480457
4.708,0.045077539,0.045649285,0.112428852,0.103973922,0.048480023
4.712,0.0450765,0.045648547,0.112431695,0.103973016,0.048480289
4.716,0.045076332,0.045648047,0.112433344,0.103971477,0.048479855
4.72,0.045076836,0.045648281,0.11243498437499999,0.103970398,0.048479351562499995
4.724,0.045076132812499996,0.045648215,0.112436492,0.10397046874999999,0.048478144531249996
4.728,0.045072878906249995,0.045646871,0.11243900781249999,0.103970906,0.048478348
4.732,0.045071839843749996,0.045646605,0.11244219531249999,0.103971609,0.048479554687499996
4.736,0.045071641,0.045647742,0.112445375,0.10397241406249999,0.048480895
4.74,0.045071438,0.045648480468749995,0.112446383,0.10397268,0.048480359
4.744,0.045069124999999995,0.045647578,0.11244477343749999,0.103972984,0.048479015624999997
4.748,0.045068352,0.045647242,0.112435555,0.103973219,0.048476570312499995
4.752,0.045067816406249996,0.045647441406249996,0.112427039,0.103973516,0.048474691
4.756,0.045069461,0.045647742,0.112422445,0.103973852,0.048473215
4.76,0.045068621,0.045647477,0.11241952343749999,0.103973352,0.048473519531249995
4.764,0.045067078,0.045646671874999996,0.112417617,0.10397291406249999,0.048474187499999995
4.768,0.045066477,0.045645968749999995,0.112418586,0.10397268,0.048474187499999995
4.772,0.045065,0.045645363,0.11241999999999999,0.10397374999999999,0.048474758
4.776,0.045066273,0.045645094,0.11241835156249999,0.10397485937499999,0.048473351562499996
4.78,0.045066039,0.045643957031249995,0.112417617,0.10397506249999999,0.048475363281249996
4.784,0.04506393,0.045643855,0.11241627343749999,0.103975164,0.048476132812499996
4.788,0.045063859,0.045643117,0.11241523437499999,0.10397519531249999,0.048473988
4.792,0.045063859,0.045642378906249996,0.11241701562499999,0.10397535937499999,0.048472746
4.796,0.045066742187499995,0.045642246,0.112414695,0.10397469531249999,0.048472277343749995
4.8,0.045068555,0.045642043,0.11241245312499999,0.103973688,0.048469394531249994
4.804,0.045063324,0.045640836,0.112417047,0.103973219,0.048468387
4.808,0.045059836,0.045640804687499995,0.112424055,0.103972883,0.048467852
4.812,0.045059637,0.045640301,0.112429453,0.10397311718749999,0.048468656
4.816,0.045059234,0.045638253906249995,0.112432266,0.103973422,0.048467984374999995
4.82,0.045060574218749996,0.045637484374999995,0.11243310937499999,0.103973852,0.04846668
4.824,0.045058965,0.04563725,0.112434953,0.10397415624999999,0.048466242187499994
4.828,0.045058766,0.045637117,0.112437797,0.10397395312499999,0.04846698
4.832,0.045057792968749996,0.045636882812499995,0.112441016,0.103973586,0.048468019531249996
4.836,0.045057859374999995,0.045637417968749996,0.112442094,0.103973281,0.048467148437499996
4.84,0.045057992,0.045637887,0.112442055,0.103973016,0.048466777343749996
4.844,0.045055578124999995,0.045637449,0.112443969,0.103973016,0.048465906249999996
4.848,0.045054508,0.045637316406249996,0.11244668749999999,0.103973016,0.048463527
4.852,0.045054238,0.045637117,0.11244933593749999,0.103973148,0.048462723
4.856,0.045054875,0.045636211,0.11245007,0.10397311718749999,0.048462253906249995
4.86,0.045054371,0.045635472656249995,0.112450477,0.10397268,0.048462188
4.864,0.04505407,0.045634801,0.112452555,0.103971438,0.048462219
4.868,0.045055547,0.045634703124999995,0.112454164,0.10397083593749999,0.048460343749999996
4.872,0.045055511718749996,0.045634066,0.112451477,0.103970703,0.048459066
4.876,0.045053164,0.045633965,0.11244879687499999,0.103970102,0.048459371093749995
4.88,0.045053734,0.045633863,0.112448695,0.10396999999999999,0.048459738
4.884,0.045052832,0.045632926,0.112449602,0.103970398,0.048460039062499995
4.888,0.045051152,0.045631652343749995,0.11244842968749999,0.10397013281249999,0.048458933593749996
4.892,0.045050047,0.045631082,0.112443063,0.103969828,0.048459269531249995
4.896,0.045050347656249996,0.045631082,0.11243796874999999,0.103969531,0.048460343749999996
4.9,0.045049176,0.045631449218749995,0.11243394531249999,0.103969867,0.048461714843749996
4.904,0.045048473,0.045631852,0.112430695,0.10396959374999999,0.048462253906249995
4.908,0.045046961,0.045632188,0.11242932,0.103969664,0.048459871093749995
4.912,0.045045554687499996,0.045631852,0.11242971874999999,0.103969664,0.048459773
4.916,0.045044617,0.045631785,0.112430289,0.103970438,0.048458999999999995
4.92,0.045043777,0.04563202,0.11243109374999999,0.10397067187499999,0.048457223
4.924,0.045045285156249996,0.045631617,0.112431898,0.10397103906249999,0.048456184
4.928,0.045045188,0.045630679687499995,0.112433711,0.103970906,0.048454910156249996
4.932,0.045044816,0.045630543,0.112434719,0.103970438,0.048453805
4.936,0.045043477,0.045629605,0.112434953,0.103970703,0.048453805
4.94,0.045043609374999995,0.045628296874999995,0.112434313,0.103971102,0.048453199
4.944,0.045043074,0.045627695,0.112435219,0.103970164,0.048451691
4.948,0.045042300781249996,0.045626922,0.11243817187499999,0.103969664,0.048451223
4.952,0.045042102,0.045626188,0.11244082,0.103969258,0.048450855
4.956,0.045042066,0.045625246093749995,0.112440852,0.103968422,0.048450953124999994
4.96,0.045041934,0.045624711,0.11243984374999999,0.10396782,0.048449883
4.964,0.045040125,0.045624273437499994,0.112438539,0.103968422,0.048450855
4.968,0.045040289062499995,0.045623871,0.112435352,0.103968625,0.048451121
4.972,0.045040691,0.045624308593749996,0.112434109,0.103968156,0.048450215
4.976,0.04503932,0.045624308593749996,0.112435555,0.10396775,0.048448039
4.98,0.045040191,0.045623301,0.11243739843749999,0.10396785156249999,0.048446863281249995
4.984,0.045037676,0.045622934,0.112440719,0.103968992,0.048446261718749994
4.988,0.045037406249999995,0.045622664,0.11244386718749999,0.10397324999999999,0.048445758
4.992,0.045038781,0.04562243,0.112446547,0.103979891,0.048443309
4.996,0.045038516,0.045622027343749996,0.112448461,0.10398719531249999,0.048443242
5,0.045039117,0.045622801,0.112449234,0.10399232812499999,0.048442839843749995
5.004,0.045036504,0.045622633,0.112451141,0.103997125,0.048441800781249995
5.008,0.045035363,0.045623234374999995,0.112454969,0.104002922,0.048442035
5.012,0.045035226562499996,0.045622969,0.112457547,0.104007078,0.048441668
5.016,0.04503573,0.045623167968749996,0.112457914,0.104012008,0.048441734374999997
5.02,0.045036336,0.045623539062499996,0.112453219,0.10401593,0.048441266
5.024,0.045036703,0.045623137,0.112447625,0.104019688,0.048441531249999996
5.028,0.045034422,0.045622262,0.112446617,0.10402374218749999,0.048441398
5.032,0.04503325,0.045621125,0.11244963281249999,0.1040275,0.048440563
5.036,0.045031472656249995,0.04562082,0.112451609,0.10403058593749999,0.048441297
5.04,0.045031238,0.045621054687499996,0.11245137499999999,0.104033195,0.048443074
5.044,0.045031371,0.04562082,0.112451883,0.10403631249999999,0.048442738281249995
5.048,0.045030535156249996,0.045620957,0.11245345312499999,0.104039398,0.048442977
5.052,0.045030301,0.045620285156249996,0.112454664,0.104041648,0.048443848
5.056,0.045030938,0.045619848,0.11245473437499999,0.104043086,0.048442839843749995
5.06,0.045031641,0.045619613,0.112455203,0.104045,0.048442539
5.064,0.045032043,0.045619613,0.112457078,0.104047445,0.048439855
5.068,0.045032914,0.045618977,0.112459359,0.10404962499999999,0.048438816406249995
5.072,0.045032883,0.04561777,0.112462109,0.104052211,0.048438715
5.076,0.045030367187499996,0.045618105468749996,0.112464219,0.104055328,0.048439152
5.08,0.045028188,0.04561948,0.112465461,0.10406078906249999,0.048440895
5.084,0.045027449,0.04562032,0.112466031,0.104069742,0.048440797
5.088,0.04502668,0.045620117187499996,0.11246689843749999,0.104077789,0.048440563
5.092,0.04502802,0.045620015624999996,0.112468914,0.104085836,0.048440726562499994
5.096,0.045027918,0.045618945,0.11247025781249999,0.10409310937499999,0.048441332
5.1,0.045025504,0.045618207,0.112470555,0.10409982,0.048442671874999996
5.104,0.045025004,0.045618473,0.11247153124999999,0.10410635156249999,0.048443812499999996
5.108,0.045026277,0.045618676,0.112472531,0.104112227,0.048443141
5.112,0.045025269531249995,0.045618641,0.112473141,0.104117953,0.048443578
5.116,0.045024801,0.045618542968749995,0.112473438,0.104118188,0.048445758
5.12,0.04502393,0.045618977,0.112473375,0.104108703,0.048446027343749996
5.124,0.045023559,0.045618711,0.11247403906249999,0.10409921093749999,0.048443980468749995
5.128,0.045022453,0.045618406,0.11247575,0.104090969,0.048444516
5.132,0.045021918,0.045618508,0.11247618749999999,0.104083625,0.048443914062499996
5.136,0.045021852,0.045617906,0.112476359,0.10407721874999999,0.048444015624999996
5.14,0.045022320312499996,0.045617871,0.112476359,0.10407158593749999,0.048444719
5.144,0.045018699,0.045618273437499995,0.112477195,0.10406632,0.04844693
5.148,0.045016082031249995,0.04561834,0.112479609,0.104061195,0.048448273437499995
5.152,0.045016352,0.045618105468749996,0.112481922,0.10405710156249999,0.048447969
5.156,0.045016957,0.045617637,0.112482258,0.104053516,0.048449847656249996
5.16,0.045016152,0.045618309,0.112482391,0.104049391,0.048452328
5.164,0.045016621,0.045618273437499995,0.11248199218749999,0.104045266,0.048453769531249996
5.168,0.045016015624999996,0.045618070312499995,0.11247846874999999,0.10404178124999999,0.048452598
5.172,0.04501548,0.045618273437499995,0.112468414,0.10403842968749999,0.048451422
5.176,0.045016051,0.045618777,0.11245855468749999,0.10403544531249999,0.048452094
5.18,0.045016386718749996,0.045619883,0.11245137499999999,0.104032664,0.048452128906249996
5.184,0.045015379,0.045619949,0.11245037499999999,0.104029781,0.048452063
5.188,0.045014441,0.045619210937499995,0.112453625,0.104027367,0.048451925781249995
5.192,0.045014039,0.045619078,0.112456742,0.104025055,0.048451895
5.196,0.045012598,0.04561918,0.112457578,0.104022133,0.048451961
5.2,0.04501159,0.045618945,0.112457953,0.104018711,0.048452664
5.204,0.045010688,0.045618473,0.11245885156249999,0.104016164,0.048452027343749995
5.208,0.045010922,0.045617871,0.112460227,0.104013883,0.048450855
5.212,0.045011188,0.045616598,0.112461367,0.10401203906249999,0.048450215
5.216,0.045010183593749996,0.045616766,0.11246113281249999,0.104010266,0.04845082
5.22,0.045008977,0.045617434,0.112461641,0.10400882,0.048451691
5.224,0.045007367,0.045617199,0.112464625,0.104007445,0.048452063
5.228,0.045006594,0.045617199,0.112467039,0.104006141,0.048449949218749996
5.232,0.045006261718749996,0.045617102,0.112468648,0.104004969,0.048448172
5.236,0.045007266,0.045617871,0.112469016,0.10400258593749999,0.048448809
5.24,0.045007668,0.045618542968749995,0.112468211,0.10399689062499999,0.048448539
5.244,0.045006429687499995,0.045618273437499995,0.11246764062499999,0.103990617,0.048448508
5.248,0.045006027,0.045617805,0.11246797656249999,0.103985086,0.048448508
5.252,0.045005488,0.045617434,0.112468914,0.103979992,0.048449109
5.256,0.045006094,0.045617503906249995,0.112467672,0.10397493,0.048448273437499995
5.26,0.045005222656249996,0.045616699,0.11246495312499999,0.103970367,0.048448676
5.264,0.045004148437499995,0.045615926,0.112461938,0.103966078,0.048447835937499996
5.268,0.045001668,0.045615961,0.112460664,0.103962758,0.048448172
5.272,0.045000965,0.045615859,0.11245892187499999,0.103959539,0.048448137
5.276,0.045000695,0.045615254,0.11245593749999999,0.103956859,0.048447031249999994
5.28,0.045001031,0.045614922,0.112452219,0.10395457812499999,0.048445188
5.284,0.045000929687499996,0.045614519531249995,0.112450203,0.10395216406249999,0.048445188
5.288,0.045002136718749995,0.045613980468749996,0.112450977,0.10394981249999999,0.048444551
5.292,0.045001867187499996,0.045613145,0.112449805,0.1039475,0.048443344
5.296,0.045001531,0.045613312499999996,0.11244631249999999,0.103945258,0.048441632812499996
5.3,0.044998714843749996,0.045613578,0.112443602,0.103943109,0.048442641
5.304,0.04499684,0.045613378906249995,0.11244246093749999,0.103940766,0.048442977
5.308,0.04499818,0.045613145,0.112441055,0.103939492,0.048441566
5.312,0.044998046874999996,0.045612339843749995,0.11243867187499999,0.10393814843749999,0.048439152
5.316,0.044996336,0.045612238281249995,0.112436797,0.10393697656249999,0.048438551
5.32,0.044997343749999995,0.045612004,0.112434883,0.103935469,0.04843818
5.324,0.044997711,0.045612070312499996,0.11243357812499999,0.103934359,0.048439285
5.328,0.044997543,0.045611836,0.11243353906249999,0.10393395312499999,0.048438617
5.332,0.044996438,0.045611234,0.11243418,0.10393385937499999,0.048439722656249996
5.336,0.044995832031249995,0.045611097656249995,0.11243324218749999,0.103932781,0.048440258
5.34,0.044996203124999995,0.045611097656249995,0.112432102,0.10393100781249999,0.048439992187499996
5.344,0.04499466,0.045610929687499996,0.112432734,0.103929695,0.048439722656249996
5.348,0.044995765624999996,0.045611164,0.112432469,0.103929125,0.048439922
5.352,0.04499543,0.045610160156249996,0.112432234,0.103928992,0.048440726562499994
5.356,0.044992313,0.045608984374999995,0.112430523,0.103929195,0.048441398
5.36,0.044992679687499995,0.045608984374999995,0.112427406,0.103928156,0.048440797
5.364,0.044992648,0.045608383,0.112426867,0.103927453,0.048438984
5.368,0.04499248,0.045606875,0.112428781,0.103927422,0.048436973
5.372,0.044992516,0.045606371,0.11243012499999999,0.10392785156249999,0.048437141
5.376,0.044991843749999996,0.045607043,0.112429891,0.10392775,0.048436773
5.38,0.044990703124999996,0.045607242,0.112428547,0.10392668,0.048436941406249996
5.384,0.044991676,0.04560768,0.11242784374999999,0.103925578,0.048434929687499996
5.388,0.044992679687499995,0.045607980468749997,0.112427906,0.103924805,0.048434859
5.392,0.044990672,0.045608749999999997,0.11242982,0.103924063,0.048435398
5.396,0.044989730468749996,0.045608917968749996,0.112428914,0.10392278906249999,0.048434293
5.4,0.044990031,0.045609289062499996,0.11242710156249999,0.103920984,0.048432984374999995
5.404,0.044989965,0.045609859,0.11242657,0.103920078,0.048431809
5.408,0.044988289,0.045608887,0.112427305,0.103919977,0.048430906249999996
5.412,0.044987718749999996,0.045608348,0.11242653124999999,0.103920648,0.048429598
5.416,0.044986949218749996,0.045608917968749996,0.112424758,0.103921555,0.048430336
5.42,0.044985605468749995,0.045609055,0.11242207812499999,0.10392221874999999,0.048432211
5.424,0.044984602,0.045608582,0.112420031,0.10392232,0.048433219
5.428,0.044984098,0.045608984374999995,0.112419898,0.103923063,0.048433555
5.432,0.044983461,0.045608551,0.112421305,0.10392366406249999,0.048432949
5.436,0.044983796874999996,0.045608383,0.112422445,0.10392353124999999,0.048433117
5.44,0.04498125,0.045608516,0.11242268,0.10392316406249999,0.04843409
5.444,0.044980578,0.045608551,0.112422141,0.10392293,0.048435195
5.448,0.044980711,0.045608652,0.11242291406249999,0.103923063,0.048436973
5.452,0.044979707031249996,0.045608449,0.11242345312499999,0.103921555,0.048435027
5.456,0.04497877,0.045608214843749995,0.112422477,0.103920109,0.048434258
5.46,0.044978699,0.045608749999999997,0.112419828,0.103918367,0.04843352
5.464,0.044980542968749995,0.045608785,0.112418859,0.103916352,0.048431977
5.468,0.044980879,0.045608281,0.11241942968749999,0.103914508,0.048432246
5.472,0.044979976562499996,0.045607914,0.112419492,0.103913602,0.048431777343749996
5.476,0.044979707031249996,0.045606941,0.11241848437499999,0.103912266,0.048430504
5.48,0.044979406,0.04560607,0.112417953,0.103910891,0.04843191
5.484,0.044977796874999997,0.045605902,0.112418625,0.103909648,0.048432012
5.488,0.044976422,0.045605164062499995,0.112419695,0.103909344,0.048431945312499995
5.492,0.044976086,0.045604492,0.11241952343749999,0.103909148,0.04843218
5.496,0.044975883,0.045604762,0.112418625,0.10390881249999999,0.048432848
5.5,0.044977258,0.045605129,0.112417914,0.103908875,0.048431441
5.504,0.044977761718749995,0.045604527,0.11241771874999999,0.10390847656249999,0.048429898
5.508,0.044977191,0.045603621,0.112418992,0.103907969,0.048430535156249996
5.512,0.044977125,0.045603285,0.11242042968749999,0.10390673437499999,0.048428624999999996
5.516,0.044976488,0.045603688,0.112421438,0.103905594,0.048427855468749996
5.52,0.04497632,0.045603555,0.112421805,0.103904188,0.048428726562499996
5.524,0.044976488,0.045602953,0.112421305,0.103903883,0.048427285
5.528,0.044974578,0.045602382812499995,0.112421609,0.103904219,0.048427050781249995
5.532,0.044974644531249997,0.045602684,0.112422477,0.103904758,0.048426211
5.536,0.044975648437499995,0.045602148,0.11242153906249999,0.103905227,0.048425039062499994
5.54,0.044975312499999996,0.045601039,0.11242013281249999,0.103905258,0.048425371093749996
5.544,0.044975480468749995,0.045600804687499996,0.112418586,0.103905055,0.048424902
5.548,0.04497709,0.045600168,0.112418625,0.10390424999999999,0.048423527343749995
5.552,0.044976722656249996,0.045599465,0.112418156,0.10390271093749999,0.048421113
5.556,0.044976051,0.045599766,0.112417281,0.10390157,0.048422223
5.56,0.044975348,0.045599832031249996,0.112416844,0.103900828,0.048423293
5.564,0.044974242,0.045598727,0.112417781,0.103900531,0.048423965
5.568,0.044973371,0.045597723,0.112419563,0.10390002343749999,0.048423797
5.572,0.044972867,0.045597688,0.11242029687499999,0.10389932,0.048422792968749996
5.576,0.044970957031249995,0.045598324,0.11242029687499999,0.10389814843749999,0.048423730468749995
5.58,0.044972465,0.045599262,0.112418625,0.103897008,0.048422355
5.584,0.044969313,0.045598691406249996,0.112417781,0.103896805,0.048422223
5.588,0.044966965,0.045598426,0.112419359,0.10389764843749999,0.048423863
5.592,0.044967938,0.045598527,0.112419898,0.103897984,0.048424637
5.596,0.044967570312499996,0.045598324,0.11241992968749999,0.103898117,0.048424266
5.6,0.044967102,0.045598894531249996,0.112421703,0.10389882,0.048422957
5.604,0.044967433593749995,0.045599496,0.11242499218749999,0.103899086,0.048422824
5.608,0.044966664062499995,0.045598762,0.11242817968749999,0.103899086,0.048421953
5.612,0.044965758,0.045598324,0.11243025781249999,0.103899453,0.048420211
5.616,0.044967102,0.045598594,0.112430453,0.103898922,0.048418934
5.62,0.044967871,0.045599598,0.11243005468749999,0.10389801562499999,0.048416992
5.624,0.044967504,0.045599262,0.112429617,0.103897547,0.048414508
5.628,0.044966867187499995,0.045597921874999996,0.112429953,0.10389718,0.048412332
5.632,0.044967672,0.045597652343749996,0.112430523,0.10389640624999999,0.048411390624999995
5.636,0.044966934,0.045596984374999996,0.112430859,0.103895469,0.048411961
5.64,0.044965793,0.045596816,0.11243129687499999,0.103895336,0.048413102
5.644,0.044965324,0.045596984374999996,0.112432805,0.10389523437499999,0.048412664
5.648,0.04496234,0.045595742187499996,0.112435016,0.103895633,0.048412801
5.652,0.044961469,0.045595140624999995,0.112436492,0.10389590624999999,0.048412801
5.656,0.044962675781249996,0.04559534,0.112437164,0.10389543,0.048412261718749995
5.66,0.044962641,0.045595543,0.112436758,0.103895063,0.048412195312499996
5.664,0.044961499999999995,0.045594434,0.11243742968749999,0.103895633,0.048412867
5.668,0.044961636718749996,0.045593328,0.11243846874999999,0.10389599999999999,0.048411625
5.672,0.044959355,0.045592859374999996,0.112438406,0.103896141,0.048412832
5.676,0.044958719,0.045593496,0.11243706249999999,0.103896336,0.048415312499999995
5.68,0.044959320312499995,0.04559457,0.112436797,0.103896641,0.048414578124999996
5.684,0.044959691406249995,0.045594972656249996,0.11243739843749999,0.103898047,0.04841441
5.688,0.044960262,0.045594601562499996,0.112438773,0.10389882,0.048414609
5.692,0.044956941,0.045593796874999995,0.112440281,0.10389972656249999,0.048416188
5.696,0.044956539062499995,0.045593863,0.112440484,0.103900734,0.048415312499999995
5.7,0.044956773,0.045593832031249996,0.11244024999999999,0.10390092968749999,0.048415617187499996
5.704,0.044957379,0.045593699,0.11244132,0.103901203,0.04841441
5.708,0.044956305,0.045592625,0.11244275781249999,0.103900766,0.048412734374999995
5.712,0.044954695,0.045592559,0.11244436718749999,0.103900195,0.048411961
5.716,0.044955434,0.045592727,0.112444438,0.103899023,0.048410453124999996
5.72,0.044955969,0.045593461,0.11244420312499999,0.103897844,0.048409918
5.724,0.044955031,0.045592559,0.112445008,0.10389768,0.048407703
5.728,0.044954797,0.045591453,0.112446047,0.10389731249999999,0.048405289062499995
5.732,0.044953218749999996,0.045590277,0.112447219,0.10389731249999999,0.048404285
5.736,0.04495191,0.045589874999999995,0.112446719,0.10389781249999999,0.048404922
5.74,0.044951441,0.04558934,0.112446117,0.103898047,0.048404453124999997
5.744,0.044950973,0.045588199,0.11244635156249999,0.10389775,0.048406094
5.748,0.044950941,0.045586523,0.112446883,0.103898047,0.048406261718749996
5.752,0.044949531,0.045585418,0.112446883,0.103898922,0.048404785
5.756,0.044949262,0.045585449,0.11244755468749999,0.103899992,0.048405558593749995
5.76,0.044948425781249995,0.04558602,0.112447789,0.103900164,0.048405727
5.764,0.044948054687499996,0.045586355,0.11244739062499999,0.103900695,0.048404887
5.768,0.044949332,0.045586457,0.112448664,0.10390126562499999,0.048405055
5.772,0.044947723,0.045586086,0.11244963281249999,0.10390167187499999,0.048407336
5.776,0.044946715,0.045585515624999996,0.112448695,0.1039015,0.048405121093749996
5.78,0.044945742,0.045584777,0.11244755468749999,0.10390230468749999,0.048403715
5.784,0.044944836,0.045583406,0.112447422,0.103906867,0.048402742
5.788,0.044945374999999996,0.045583238,0.11244802343749999,0.10391457812499999,0.048401938
5.792,0.044943261718749995,0.045583336,0.112449297,0.10392242187499999,0.048402039
5.796,0.044944602,0.045583336,0.11244957,0.103929195,0.048401535156249995
5.8,0.044943027,0.045582566,0.112449703,0.10393482812499999,0.04840073
5.804,0.044940042968749996,0.045581828,0.11245174999999999,0.103940195,0.048401938
5.808,0.044940042968749996,0.045581996,0.11245308593749999,0.103945492,0.048399992
5.812,0.044939844,0.045581527,0.112454461,0.103951492,0.048397645
5.816,0.044939508,0.045582199,0.11245482812499999,0.10395611718749999,0.048397477
5.82,0.044941754,0.045583102,0.11245382812499999,0.10396054687499999,0.048396336
5.824,0.044941953124999996,0.045582699218749995,0.11245332,0.103965039,0.048396773
5.828,0.044943063,0.045582063,0.112453555,0.103969766,0.04839607
5.832,0.044942824,0.045581426,0.11245399218749999,0.103974625,0.048396738
5.836,0.044941051,0.045581395,0.11245382812499999,0.10397867968749999,0.048395699
5.84,0.044942222656249996,0.045580922,0.11245224999999999,0.10398274218749999,0.048393453
5.844,0.044943867,0.045580890624999995,0.11245154687499999,0.103986531,0.04839275
5.848,0.044944434,0.045580992187499995,0.112452383,0.10399024999999999,0.048391441
5.852,0.044943297,0.045580555,0.112452555,0.103995211,0.048391008
5.856,0.044942895,0.045580758,0.112451813,0.104003961,0.048391207
5.86,0.044942523,0.045580488,0.11245033593749999,0.104012945,0.048390707
5.864,0.044942156,0.04558032,0.112449367,0.104021359,0.048389801
5.868,0.044941051,0.045580722656249996,0.11244996874999999,0.104029445,0.048389398437499995
5.872,0.044938668,0.045581023,0.112450406,0.104036789,0.048389598
5.876,0.044938164,0.045581761718749995,0.112448125,0.104043727,0.048390871093749996
5.88,0.044938637,0.045581929687499995,0.11244510937499999,0.104049859,0.048392281249999995
5.884,0.044938234,0.045581929687499995,0.11244477343749999,0.10405572656249999,0.048392214843749996
5.888,0.044938332,0.045582164,0.112446883,0.104062266,0.048392348
5.892,0.044937832,0.045582129,0.11244772656249999,0.104067664,0.048390871093749996
5.896,0.044937359,0.045582266,0.11244698437499999,0.104071555,0.048389262
5.9,0.044937664,0.045582164,0.112445039,0.104075547,0.04838943
5.904,0.044938097656249995,0.045582266,0.112445039,0.104080172,0.048389832031249996
5.908,0.044935917968749996,0.045581059,0.112445477,0.104085336,0.048392047
5.912,0.044935953,0.045580992187499995,0.112443469,0.10408993,0.048392617
5.916,0.044935484,0.045581629,0.11243907,0.104093547,0.04839198
5.92,0.044935249999999996,0.045581660156249995,0.112436797,0.10409606249999999,0.04839302
5.924,0.044934344,0.045581660156249995,0.112440352,0.104098273,0.048393488
5.928,0.044933504,0.045581059,0.11244685156249999,0.104100922,0.048393555
5.932,0.044932836,0.04558059,0.112453625,0.10410377343749999,0.048394460937499995
5.936,0.044931996093749996,0.045581227,0.112458117,0.104106789,0.048394727
5.94,0.044932699,0.045581324,0.112461438,0.10410903906249999,0.048395699
5.944,0.044931828124999997,0.045580219,0.112466328,0.10411071093749999,0.048395062499999995
5.948,0.044932465,0.045579215,0.112471633,0.104111688,0.048394965
5.952,0.044931726562499996,0.045578441406249996,0.112474516,0.104113164,0.048395801
5.956,0.044931563,0.04557891,0.112475219,0.10411547656249999,0.048396641
5.96,0.044933102,0.045578676,0.112476555,0.104116617,0.048397074218749996
5.964,0.044934914,0.045577504,0.11247792968749999,0.104118289,0.048397477
5.968,0.044932566,0.045575996,0.112480445,0.104119898,0.048398316406249996
5.972,0.044930387,0.045576027,0.11248339843749999,0.104119633,0.04839741
5.976,0.044930219,0.045576363,0.112485344,0.10411896093749999,0.048397343749999995
5.98,0.044930051,0.045577168,0.112485445,0.10411792187499999,0.048397512
5.984,0.044927871093749995,0.045576465,0.112487922,0.104116914,0.048398887
5.988,0.044927773,0.045576129,0.112492484,0.10411584374999999,0.048397914
5.992,0.044926933593749996,0.045575359,0.112495836,0.10411477343749999,0.048397813
5.996,0.0449265,0.045575125,0.11249664062499999,0.10411407,0.048398214843749995
6,0.044925762,0.045575391,0.112497414,0.104113664,0.048397543
6.004,0.044925055,0.045575391,0.11249912499999999,0.104114266,0.048397211
6.008,0.044923613,0.045575391,0.11249942187499999,0.104114367,0.048396101562499995
6.012,0.044923179687499995,0.045574687499999995,0.11249817968749999,0.104114266,0.048395633
6.016,0.044923113281249996,0.045574117,0.11249684374999999,0.10411403124999999,0.04839607
6.02,0.044921738,0.045574453,0.11249443,0.10411326562499999,0.048395433593749995
6.024,0.044923613,0.045575055,0.112492922,0.104112891,0.04839627
6.028,0.044922574,0.045574555,0.112493688,0.10411299218749999,0.048396136718749996
6.032,0.044921269531249995,0.045574988,0.112493625,0.104112961,0.048396172
