time,F8,F4,Fz,F3,F7
0,-0.005104445,-0.001627296,0.075700016,-0.016973053,0.006975722
0.004,-0.005104009,-0.001628637,0.075698445,-0.016973387,0.006975151
0.008,-0.005103976,-0.001629308,0.075698547,-0.016972818,0.006974179
0.012,-0.005107161,-0.001628235,0.075700016,-0.016971074,0.006975654
0.016,-0.005105954,-0.001627497,0.075700484,-0.016969967,0.006976627
0.02,-0.00510411,-0.001627866,0.075698609,-0.016969633,0.006974515
0.024,-0.005103271,-0.001628269,0.075697602,-0.016970236,0.00697143
0.028,-0.005103037,-0.001627833,0.075697906,-0.016968828,0.006970659
0.032,-0.005102098,-0.001627665,0.075698508,-0.016968123,0.006970994
0.036,-0.005102467,-0.001627833,0.075698578,-0.016967855,0.006971363
0.04,-0.00510421,-0.001628503,0.075697234,-0.016967453,0.006970759
0.044,-0.005105652,-0.001629744,0.075695258,-0.016966883,0.006970123
0.048,-0.005105618,-0.001631387,0.075694219,-0.016965709,0.006969083
0.052,-0.005105316,-0.001632258,0.075694453,-0.016963162,0.006968479
0.056,-0.005104881,-0.001632929,0.075693852,-0.016961352,0.006968044
0.06,-0.005104545,-0.001633935,0.075692242,-0.016960748,0.006966501
0.064,-0.005104713,-0.001634941,0.07569157,-0.01696249,0.006965261
0.068,-0.005105652,-0.001635276,0.075691906,-0.016963496,0.006965965
0.072,-0.005105887,-0.001633633,0.075694484,-0.016964402,0.00696744
0.076,-0.005105484,-0.001632225,0.07569482,-0.016964402,0.006967239
0.08,-0.005106188,-0.001631923,0.075694422,-0.016965441,0.006965797
0.084,-0.005106725,-0.001632191,0.075694688,-0.016966145,0.006965562
0.088,-0.005106658,-0.001631286,0.075695727,-0.016966949,0.006966803
0.092,-0.005106322,-0.00163018,0.07569593,-0.016967721,0.006969687
0.096,-0.005104814,-0.001630046,0.075695125,-0.016967789,0.006970055
0.1,-0.005105048,-0.001630984,0.075693852,-0.016968023,0.006969016
0.104,-0.005104915,-0.001631688,0.075693109,-0.016969029,0.006967272
0.108,-0.005103439,-0.001631152,0.075693852,-0.016969498,0.006966568
0.112,-0.005102131,-0.001630481,0.075694789,-0.016969732,0.006966971
0.116,-0.0051024,-0.001629543,0.075696328,-0.016971645,0.006968077
0.12,-0.00510364,-0.001629241,0.075696836,-0.016972783,0.006967574
0.124,-0.005104915,-0.00162971,0.075696164,-0.016971275,0.006965999
0.128,-0.005104143,-0.001629408,0.075696063,-0.016970906,0.006964389
0.132,-0.005102869,-0.001628101,0.075695992,-0.016970705,0.006964389
0.136,-0.005101595,-0.001627062,0.0756965,-0.016970404,0.006964255
0.14,-0.005101964,-0.001626324,0.075697539,-0.016971912,0.006962612
0.144,-0.005104311,-0.001627229,0.075697234,-0.016971879,0.006963451
0.148,-0.005105149,-0.001629073,0.075697234,-0.01697218,0.006965999
0.152,-0.005106658,-0.001630951,0.075697,-0.016970035,0.006968044
0.156,-0.005109072,-0.00163189,0.075696398,-0.016968057,0.006968547
0.16,-0.00511219,-0.001632996,0.075696703,-0.016966381,0.006966904
0.164,-0.00511571,-0.001633834,0.075696633,-0.01696276,0.006964624
0.168,-0.005116884,-0.001633633,0.075697437,-0.01696125,0.00696325
0.172,-0.005116381,-0.001633599,0.075697937,-0.016959641,0.00696392
0.176,-0.005115945,-0.001633532,0.075697266,-0.016957361,0.006964054
0.18,-0.005118292,-0.001634438,0.075696633,-0.016954947,0.006963316
0.184,-0.005120236,-0.001636282,0.075696227,-0.016955283,0.006962847
0.188,-0.005120404,-0.001636986,0.075697406,-0.016956455,0.006963987
0.192,-0.005119465,-0.001636181,0.07569807,-0.016958301,0.006965831
0.196,-0.005120404,-0.001634605,0.075698344,-0.016961418,0.006968211
0.2,-0.005120538,-0.001633432,0.07569918,-0.016965105,0.006967474
0.204,-0.005120002,-0.001633599,0.075700586,-0.016968426,0.006965395
0.208,-0.005121544,-0.001632996,0.075702805,-0.016970203,0.006966468
0.212,-0.005121544,-0.001632594,0.075703875,-0.016968996,0.006968614
0.216,-0.005120471,-0.001633197,0.075702367,-0.016966447,0.006968278
0.22,-0.005120136,-0.001634538,0.075700922,-0.016965777,0.006966233
0.224,-0.005121242,-0.001635343,0.075701695,-0.016967051,0.006965026
0.228,-0.005122918,-0.00163484,0.075702969,-0.016968693,0.006965831
0.232,-0.005121578,-0.001633365,0.075702938,-0.016968324,0.00696734
0.236,-0.00512027,-0.001632594,0.075702398,-0.01696809,0.006967004
0.24,-0.005120371,-0.001633197,0.075701156,-0.01696876,0.006965831
0.244,-0.005120773,-0.001633633,0.075701461,-0.016969801,0.006964624
0.248,-0.005120538,-0.001633767,0.075702266,-0.016970369,0.006964322
0.252,-0.00512027,-0.001632459,0.075704313,-0.016969934,0.006965127
0.256,-0.005118728,-0.00163132,0.07570575,-0.01697208,0.0069663
0.26,-0.005118627,-0.001631051,0.075706555,-0.016974393,0.0069662
0.264,-0.005119733,-0.00163085,0.075706523,-0.016974896,0.006964926
0.268,-0.005120035,-0.001630314,0.075707156,-0.016975836,0.006964322
0.272,-0.005118526,-0.00162914,0.075707562,-0.016976908,0.006965026
0.276,-0.005117051,-0.001628973,0.075706961,-0.016976773,0.00696516
0.28,-0.005117688,-0.00163018,0.075706789,-0.016978818,0.006965462
0.284,-0.00511913,-0.001630682,0.075706055,-0.016980998,0.006965328
0.288,-0.005118526,-0.001630783,0.075706023,-0.016983111,0.006965395
0.292,-0.005117957,-0.001629978,0.075706789,-0.016983445,0.006966334
0.296,-0.005119465,-0.001628906,0.075707562,-0.016982977,0.006967306
0.3,-0.005119834,-0.00162904,0.075707328,-0.016982172,0.006965429
0.304,-0.005119499,-0.00162914,0.075706859,-0.016981535,0.006962176
0.308,-0.005118359,-0.001628235,0.075708,-0.016981971,0.006960802
0.312,-0.005119097,-0.001627296,0.075710211,-0.016981367,0.006962344
0.316,-0.005119432,-0.001628,0.075709406,-0.016976002,0.006961673
0.32,-0.0051197,-0.001629811,0.075707633,-0.016974326,0.006959963
0.324,-0.005120572,-0.001631454,0.075707297,-0.016975969,0.006959494
0.328,-0.005123556,-0.00163199,0.075708836,-0.016977812,0.006961137
0.332,-0.00512322,-0.001631152,0.075709375,-0.016980797,0.006964289
0.336,-0.005121242,-0.001630314,0.075709406,-0.016981635,0.006964758
0.34,-0.005121812,-0.001629777,0.075710141,-0.016982439,0.006964322
0.344,-0.00512369,-0.001630347,0.07571068,-0.016982775,0.006963954
0.348,-0.005122147,-0.001631353,0.07571068,-0.016982037,0.006962646
0.352,-0.005118795,-0.001630817,0.07571132,-0.016982943,0.006962377
0.356,-0.00511675,-0.001630146,0.075711484,-0.016984184,0.006961104
0.36,-0.005116951,-0.001631152,0.075710852,-0.016984385,0.006958689
0.364,-0.005118225,-0.001631353,0.075711047,-0.016985994,0.00695708
0.368,-0.005117722,-0.001631018,0.075712492,-0.016988273,0.006956913
0.372,-0.005116716,-0.001630046,0.075713766,-0.016988709,0.006958287
0.376,-0.005116347,-0.001629543,0.075714367,-0.016988006,0.006959092
0.38,-0.005117286,-0.001629911,0.075713359,-0.016987234,0.006957852
0.384,-0.005118393,-0.001630649,0.075712625,-0.016987234,0.006955102
0.388,-0.005117521,-0.001631655,0.075712258,-0.016986664,0.006955068
0.392,-0.005117252,-0.001632426,0.075711688,-0.016982943,0.006956275
0.396,-0.00511789,-0.001633398,0.075711281,-0.016981602,0.00695651
0.4,-0.005119868,-0.001633834,0.075710648,-0.016982641,0.006955907
0.404,-0.005122416,-0.001634203,0.07571018,-0.016982139,0.006954499
0.408,-0.005122885,-0.001634102,0.075710813,-0.016981334,0.006955136
0.412,-0.005121946,-0.001634505,0.075710648,-0.01697835,0.006956142
0.416,-0.005123288,-0.001634806,0.075709477,-0.016975668,0.006956074
0.42,-0.005124729,-0.001634605,0.075709273,-0.016975668,0.006954901
0.424,-0.005124327,-0.001635276,0.07570957,-0.01697493,0.006952554
0.428,-0.005124025,-0.001635276,0.075710914,-0.016976908,0.006952621
0.432,-0.005122885,-0.001633767,0.075711484,-0.016978986,0.006953996
0.436,-0.005122315,-0.001632728,0.075710813,-0.01697959,0.006953929
0.44,-0.005121745,-0.001633164,0.075710609,-0.016981031,0.006952722
0.444,-0.005122349,-0.001634303,0.075711414,-0.016982105,0.006951313
0.448,-0.005122114,-0.001634706,0.075711922,-0.016981869,0.00694967
0.452,-0.005120236,-0.001634002,0.075712961,-0.016982105,0.006949905
0.456,-0.005119097,-0.001633432,0.075713594,-0.016982574,0.006951247
0.46,-0.005119398,-0.001634572,0.075712992,-0.016982775,0.006950308
0.464,-0.005120169,-0.001635276,0.075713094,-0.016983781,0.006948698
0.468,-0.005119968,-0.001634538,0.075714539,-0.01698452,0.006948899
0.472,-0.005118862,-0.001633465,0.075715773,-0.016984586,0.006950241
0.476,-0.00511856,-0.001633197,0.075717016,-0.016985156,0.006949972
0.48,-0.005119097,-0.001633935,0.075717117,-0.016986898,0.006948866
0.484,-0.005121913,-0.001634203,0.075717422,-0.016987,0.006947927
0.488,-0.005124863,-0.001633298,0.075718625,-0.016985289,0.006947793
0.492,-0.005124729,-0.001632426,0.075718258,-0.016983445,0.006948028
0.496,-0.005124964,-0.001632258,0.075717187,-0.016982943,0.006947491
0.5,-0.005126238,-0.001633029,0.075716211,-0.016983412,0.006947189
0.504,-0.005128183,-0.001634102,0.075716383,-0.016984117,0.006948128
0.508,-0.005128082,-0.001635108,0.075715813,-0.01698452,0.006951313
0.512,-0.005126338,-0.00163427,0.075715273,-0.016986463,0.006955739
0.516,-0.005125601,-0.001633499,0.075715773,-0.01698918,0.006961104
0.52,-0.005128082,-0.001635041,0.0757145,-0.016990285,0.006963954
0.524,-0.005130194,-0.001637086,0.075713695,-0.016990117,0.006963115
0.528,-0.005130094,-0.00163779,0.075714367,-0.016990453,0.006962981
0.532,-0.005129356,-0.001637053,0.075715273,-0.016990186,0.006964523
0.536,-0.005129054,-0.001637354,0.075714031,-0.016990018,0.006966133
0.54,-0.005130295,-0.001638528,0.075712891,-0.016990688,0.006966837
0.544,-0.005132038,-0.001639836,0.075712727,-0.016990922,0.006966568
0.548,-0.00513234,-0.001639634,0.075714539,-0.016989916,0.006966065
0.552,-0.005131267,-0.001638863,0.075716078,-0.016987736,0.006966233
0.556,-0.005130529,-0.001639098,0.075715641,-0.016986061,0.00696687
0.56,-0.005131703,-0.001640305,0.075714836,-0.016987033,0.006966233
0.564,-0.005133211,-0.001641009,0.075715711,-0.016989748,0.006965898
0.568,-0.005132507,-0.00163997,0.075717523,-0.016991357,0.006966267
0.572,-0.005129457,-0.001638293,0.075718055,-0.016993102,0.006967675
0.576,-0.005128216,-0.001636919,0.075717187,-0.016994611,0.006967642
0.58,-0.005129624,-0.001637086,0.075716516,-0.016994611,0.006965864
0.584,-0.00513073,-0.001637891,0.075716383,-0.016994543,0.006964423
0.588,-0.005129188,-0.001637891,0.075717352,-0.01699602,0.006963819
0.592,-0.005128518,-0.001636248,0.075719398,-0.016997627,0.006964825
0.596,-0.00512835,-0.001635075,0.075718859,-0.016998801,0.006965294
0.6,-0.005129691,-0.001635343,0.075717453,-0.016998801,0.006963283
0.604,-0.005131401,-0.001636349,0.075718125,-0.016999975,0.006962042
0.608,-0.005131904,-0.001636349,0.075719063,-0.017001551,0.006962277
0.612,-0.005130697,-0.001635041,0.075720367,-0.017003428,0.006963618
0.616,-0.005129926,-0.001635276,0.075718695,-0.017002523,0.006964389
0.62,-0.0051311,-0.001636583,0.075717289,-0.017002824,0.006963283
0.624,-0.005133245,-0.001637723,0.075717523,-0.017001752,0.006961104
0.628,-0.005134788,-0.001638562,0.075717758,-0.016998902,0.006959863
0.632,-0.005135659,-0.001637891,0.075718695,-0.016997494,0.006960869
0.636,-0.005137034,-0.001637019,0.075718898,-0.016995549,0.006961439
0.64,-0.005137872,-0.001636718,0.075718758,-0.016996152,0.006960634
0.644,-0.005139045,-0.00163712,0.075718656,-0.01699793,0.006960802
0.648,-0.005140319,-0.001636785,0.075719398,-0.016999807,0.006961439
0.652,-0.005140789,-0.001636382,0.075720305,-0.016998566,0.006961472
0.656,-0.005141091,-0.001635913,0.075720203,-0.01699632,0.006961271
0.66,-0.005142633,-0.001636215,0.075719031,-0.016995516,0.006959695
0.664,-0.00514327,-0.001637958,0.075718156,-0.016996387,0.00695812
0.668,-0.005142029,-0.001639366,0.075718289,-0.016997025,0.006957248
0.672,-0.005140655,-0.001639165,0.07571725,-0.016995449,0.006957214
0.676,-0.00514089,-0.001638863,0.075716148,-0.016993939,0.006957617
0.68,-0.005140957,-0.001639567,0.075715609,-0.016994041,0.006956142
0.684,-0.005141594,-0.001641042,0.075715273,-0.0169926,0.006953325
0.688,-0.005141191,-0.001642384,0.075714602,-0.016991492,0.006952386
0.692,-0.00514042,-0.001642283,0.07571407,-0.01699109,0.006954062
0.696,-0.005140822,-0.001642149,0.075713695,-0.01699233,0.006954935
0.7,-0.005141426,-0.001642417,0.075712992,-0.016993705,0.006953828
0.704,-0.005141795,-0.001642417,0.075713094,-0.016995783,0.006953828
0.708,-0.005141426,-0.001641981,0.075713664,-0.016997393,0.006954096
0.712,-0.00514042,-0.001640942,0.075714203,-0.016996689,0.006953828
0.716,-0.005140822,-0.001639869,0.075713664,-0.016996119,0.006952957
0.72,-0.005141761,-0.001640674,0.075712086,-0.016998398,0.006952587
0.724,-0.005142499,-0.001641814,0.075712359,-0.017001248,0.006953124
0.728,-0.005142499,-0.001643054,0.075712727,-0.01700165,0.006953761
0.732,-0.005141594,-0.001643389,0.075712992,-0.017001416,0.006953996
0.736,-0.005141862,-0.001642585,0.075712523,-0.017000881,0.006953627
0.74,-0.005144208,-0.001643423,0.075710711,-0.017000377,0.006953325
0.744,-0.005145885,-0.001644228,0.075709945,-0.016998902,0.006951984
0.748,-0.00514555,-0.001643322,0.075710242,-0.016998701,0.006950643
0.752,-0.005145818,-0.001641914,0.075711617,-0.016998869,0.006951515
0.756,-0.005145952,-0.001640875,0.075712695,-0.016999941,0.006952319
0.76,-0.005146421,-0.001640406,0.075712656,-0.017000645,0.006950375
0.764,-0.005146791,-0.001640204,0.075712992,-0.017002758,0.00694967
0.768,-0.005146891,-0.001639299,0.075714031,-0.017003797,0.00695004
0.772,-0.005147427,-0.001638394,0.075715875,-0.017003697,0.00695138
0.776,-0.005146992,-0.001637891,0.075716008,-0.017003898,0.006952219
0.78,-0.005147125,-0.001638729,0.075715773,-0.017005271,0.006952051
0.784,-0.00514793,-0.001639366,0.075716211,-0.017005439,0.006951247
0.788,-0.005147125,-0.001639198,0.07571675,-0.017004836,0.006950241
0.792,-0.005145717,-0.001638796,0.075716883,-0.0170044,0.006949134
0.796,-0.005145214,-0.001638025,0.075716109,-0.017003461,0.006947324
0.8,-0.005146254,-0.001639333,0.075715203,-0.017002254,0.006945446
0.804,-0.00514907,-0.001640908,0.075715609,-0.017001316,0.006944474
0.808,-0.005150981,-0.001641076,0.07571732,-0.017001752,0.006945916
0.812,-0.00515021,-0.001640104,0.075717617,-0.017002455,0.00694833
0.816,-0.005150445,-0.00163997,0.075717016,-0.017001785,0.006949537
0.82,-0.00515125,-0.001641646,0.075716281,-0.017001953,0.006948598
0.824,-0.00515192,-0.001643222,0.075714875,-0.017001416,0.006946284
0.828,-0.005151786,-0.001643255,0.075713828,-0.016999203,0.006945882
0.832,-0.005151887,-0.001642216,0.075713734,-0.016998064,0.006946854
0.836,-0.005152155,-0.001641579,0.075713766,-0.016997795,0.006946284
0.84,-0.005152624,-0.001641981,0.075712492,-0.016997594,0.00694501
0.844,-0.00515373,-0.001643222,0.075711719,-0.016997293,0.006943904
0.848,-0.005154736,-0.001642987,0.075712758,-0.016997092,0.0069433
0.852,-0.005153362,-0.001641545,0.075714773,-0.016999875,0.006943938
0.856,-0.005152088,-0.001640741,0.07571568,-0.017002791,0.006945346
0.86,-0.005152624,-0.001641344,0.075714234,-0.017003629,0.00694501
0.864,-0.005153026,-0.001642551,0.075713359,-0.017003998,0.006945111
0.868,-0.005153395,-0.001643725,0.075712695,-0.017001248,0.006944943
0.872,-0.005153328,-0.001643591,0.075712594,-0.016999707,0.006945111
0.876,-0.005154334,-0.001642887,0.075713359,-0.017001686,0.006946452
0.88,-0.005155273,-0.001642518,0.075714031,-0.0170041,0.006946284
0.884,-0.005155608,-0.001642585,0.075715406,-0.017005238,0.006945916
0.888,-0.005153395,-0.001642451,0.075717047,-0.017006916,0.006946251
0.892,-0.005151417,-0.001642652,0.075716984,-0.017006379,0.006946485
0.896,-0.005151719,-0.001642585,0.075716414,-0.017005943,0.006946217
0.9,-0.005152758,-0.001642652,0.075715945,-0.017007283,0.006944843
0.904,-0.005154636,-0.001643389,0.075715172,-0.017007352,0.006944038
0.908,-0.005155843,-0.001643389,0.075715375,-0.017007955,0.006945211
0.912,-0.005155273,-0.001642652,0.075715273,-0.017007016,0.00694615
0.916,-0.005155038,-0.001642317,0.075715203,-0.017006346,0.006946184
0.92,-0.005156916,-0.001643222,0.075714633,-0.017005842,0.006945882
0.924,-0.005158056,-0.001644731,0.07571407,-0.017005105,0.006944541
0.928,-0.005158189,-0.001645502,0.075714164,-0.017003662,0.006943233
0.932,-0.00515705,-0.001643926,0.075715273,-0.0170041,0.006943401
0.936,-0.005156078,-0.001642384,0.075715141,-0.017004064,0.006942395
0.94,-0.005156446,-0.001642685,0.075713695,-0.017004031,0.006941423
0.944,-0.005156849,-0.001642987,0.075714602,-0.017006848,0.006940082
0.948,-0.005156949,-0.001642082,0.075716344,-0.017010334,0.006940048
0.952,-0.005156748,-0.001641713,0.075717789,-0.017011441,0.006942228
0.956,-0.005156078,-0.001642082,0.075717383,-0.017011877,0.006942496
0.96,-0.005157888,-0.001643524,0.075716445,-0.017011844,0.006941423
0.964,-0.005159296,-0.001644161,0.075716883,-0.017014156,0.006941289
0.968,-0.005158156,-0.001643725,0.075718289,-0.017015564,0.006941825
0.972,-0.005156346,-0.001642484,0.075718461,-0.017014525,0.006941792
0.976,-0.005155776,-0.001641613,0.075717852,-0.017013387,0.006941523
0.98,-0.005157117,-0.001642182,0.075717586,-0.017013955,0.006940652
0.984,-0.005159062,-0.001642887,0.075718227,-0.017013486,0.00693864
0.988,-0.005158123,-0.001642987,0.075719063,-0.017012145,0.006937869
0.992,-0.005156581,-0.001641914,0.075719898,-0.017011174,0.00693864
0.996,-0.005158123,-0.001641545,0.075720203,-0.017009631,0.006938808
1,-0.005160939,-0.00164225,0.075719938,-0.017009195,0.006938808
1.004,-0.005162313,-0.001643088,0.075720742,-0.0170101,0.006938305
1.008,-0.005161777,-0.001642216,0.075722047,-0.017011408,0.006939579
1.012,-0.005159766,-0.001640473,0.07572218,-0.017011375,0.006940719
1.016,-0.005159028,-0.001639165,0.075721914,-0.017009865,0.006939579
1.02,-0.005159766,-0.001639198,0.075719633,-0.017008357,0.006937634
1.024,-0.005159464,-0.001639165,0.075718523,-0.017009967,0.006935421
1.028,-0.005157955,-0.0016394,0.075719398,-0.017012145,0.00693522
1.032,-0.005156983,-0.001638461,0.075720336,-0.017012145,0.006935824
1.036,-0.005157787,-0.001637958,0.075720234,-0.017010502,0.006934349
1.04,-0.005159464,-0.001638193,0.075719836,-0.017011609,0.006932873
1.044,-0.005162716,-0.001638897,0.075720234,-0.017013387,0.006932772
1.048,-0.00516456,-0.001639735,0.075721641,-0.017011943,0.006933041
1.052,-0.005164225,-0.001638696,0.075722445,-0.01701218,0.006934147
1.056,-0.005166974,-0.001637053,0.075723758,-0.017014961,0.006936494
1.06,-0.005168818,-0.001637053,0.075723586,-0.017016135,0.006937902
1.064,-0.005168147,-0.001637723,0.075723055,-0.017017008,0.006937969
1.068,-0.005167343,-0.001637455,0.075723586,-0.017017342,0.006938305
1.072,-0.005167879,-0.001636751,0.075724023,-0.017014928,0.006939612
1.076,-0.005171165,-0.001636349,0.075724227,-0.017011811,0.006939747
1.08,-0.005172473,-0.00163722,0.075722953,-0.017010301,0.006937902
1.084,-0.005171701,-0.00163836,0.075722109,-0.01700849,0.006934449
1.088,-0.005171835,-0.001638964,0.075722883,-0.017007217,0.006933275
1.092,-0.005171333,-0.001638394,0.075723961,-0.017008322,0.006934382
1.096,-0.005171668,-0.001637891,0.075723992,-0.017008223,0.006933913
1.1,-0.005174048,-0.001638293,0.075723719,-0.017006881,0.006932538
1.104,-0.005173177,-0.001638796,0.075722984,-0.017007184,0.006931767
1.108,-0.005171567,-0.001639802,0.075721547,-0.017005607,0.006931264
1.112,-0.005169254,-0.001640104,0.075720469,-0.017004836,0.006931465
1.116,-0.005168852,-0.001640875,0.075719367,-0.017005004,0.0069318
1.12,-0.005170159,-0.00164225,0.075718898,-0.017007217,0.006931465
1.124,-0.00517036,-0.001643121,0.075719531,-0.017008625,0.00693056
1.128,-0.005170494,-0.001643054,0.075720305,-0.017006949,0.00693113
1.132,-0.005170997,-0.001642752,0.075720539,-0.017003797,0.006931029
1.136,-0.005172707,-0.00164225,0.075721344,-0.017001082,0.00693009
1.14,-0.005174082,-0.001642216,0.07572168,-0.016999639,0.006928247
1.144,-0.005174987,-0.001642484,0.075721742,-0.017000545,0.006927844
1.148,-0.005174451,-0.001641613,0.075722211,-0.017001986,0.006928247
1.152,-0.005172942,-0.001639467,0.075723484,-0.017002691,0.006929219
1.156,-0.005173411,-0.001639266,0.075722648,-0.017001719,0.006929319
1.16,-0.005174518,-0.001640305,0.075721844,-0.017003059,0.00692828
1.164,-0.005174048,-0.001641244,0.07572282,-0.01700668,0.00692647
1.168,-0.005175188,-0.001640473,0.075725234,-0.017009195,0.006928347
1.172,-0.005173445,-0.001640875,0.075725,-0.017009363,0.006931029
1.176,-0.005170997,-0.001642484,0.075724492,-0.017009295,0.006929856
1.18,-0.005170226,-0.001644496,0.075724125,-0.017008793,0.006926604
1.184,-0.005170662,-0.001645837,0.075723484,-0.017009766,0.006924424
1.188,-0.005170059,-0.001645099,0.075723719,-0.017010033,0.006922815
1.192,-0.00516922,-0.001643591,0.075724461,-0.017008859,0.006923485
1.196,-0.005168918,-0.001642484,0.075723656,-0.017008021,0.006924257
1.2,-0.005169421,-0.001642719,0.075721211,-0.017007619,0.00692315
1.204,-0.005170662,-0.001643457,0.075720367,-0.017008523,0.006921642
1.208,-0.005169757,-0.00164349,0.075721742,-0.017009799,0.006920803
1.212,-0.00516865,-0.001641981,0.075723016,-0.017010535,0.006921575
1.216,-0.005168751,-0.001641579,0.075722883,-0.017010469,0.006921742
1.22,-0.005170025,-0.001641914,0.075723086,-0.017009697,0.006920066
1.224,-0.005171165,-0.001641579,0.075723453,-0.017010535,0.006919563
1.228,-0.005171031,-0.001640506,0.075724828,-0.017012111,0.0069203
1.232,-0.005170695,-0.00163883,0.075726672,-0.01701352,0.006922178
1.236,-0.00517036,-0.00163826,0.07572718,-0.01701476,0.006923485
1.24,-0.005171936,-0.001638059,0.075727844,-0.017017309,0.006924056
1.244,-0.005174082,-0.001638796,0.07572875,-0.017017711,0.006923921
1.248,-0.005175155,-0.00163826,0.075729258,-0.017017041,0.00692429
1.252,-0.005173713,-0.001638461,0.075729258,-0.017018113,0.006926838
1.256,-0.005174954,-0.001638897,0.075728953,-0.017017945,0.006928045
1.26,-0.005175188,-0.001639735,0.075727109,-0.017017813,0.006927006
1.264,-0.005174551,-0.001640305,0.075726742,-0.017017744,0.006925162
1.268,-0.005173277,-0.001639936,0.075727273,-0.01701741,0.006924491
1.272,-0.005171165,-0.001638126,0.075727242,-0.017015398,0.006924089
1.276,-0.005170729,-0.001637354,0.075726672,-0.017013387,0.006922479
1.28,-0.005170628,-0.001637019,0.075726406,-0.017014123,0.006920501
1.284,-0.005171064,-0.001637556,0.075727242,-0.017014693,0.006919362
1.288,-0.005172037,-0.00163769,0.075728984,-0.017014291,0.006920066
1.292,-0.005172473,-0.001636785,0.07572818,-0.017013186,0.006921541
1.296,-0.00517264,-0.001637153,0.07572657,-0.017010805,0.006921306
1.3,-0.005174786,-0.001637857,0.07572557,-0.017010771,0.006921239
1.304,-0.005176362,-0.001638293,0.0757255,-0.017013219,0.006920904
1.308,-0.005175121,-0.001637556,0.075727273,-0.017015297,0.006920669
1.312,-0.005174316,-0.001636516,0.075729727,-0.017014057,0.006920066
1.316,-0.005174182,-0.001636852,0.075729523,-0.017012279,0.006919161
1.32,-0.005174719,-0.001637757,0.075730094,-0.017013219,0.006918121
1.324,-0.005176362,-0.001638293,0.075731672,-0.017013855,0.006918457
1.328,-0.005176294,-0.001638729,0.075733648,-0.017014057,0.006918892
1.332,-0.005174115,-0.001637053,0.075735789,-0.017016471,0.006919395
1.336,-0.005171601,-0.001636013,0.075735086,-0.017018314,0.006919462
1.34,-0.005171701,-0.001637455,0.075732805,-0.017018146,0.006918624
1.344,-0.005172707,-0.001639836,0.075732477,-0.017017008,0.006917584
1.348,-0.005172338,-0.001640942,0.075732203,-0.017015834,0.006918121
1.352,-0.005171769,-0.001640875,0.075731297,-0.017015063,0.006919127
1.356,-0.005170695,-0.001641478,0.075731336,-0.017016336,0.006919026
1.36,-0.005170562,-0.00164121,0.075731438,-0.017018852,0.00691688
1.364,-0.005170763,-0.00163997,0.075732172,-0.017020695,0.006913763
1.368,-0.005170427,-0.001639232,0.075733945,-0.017022338,0.00691326
1.372,-0.005168852,-0.001638193,0.075734719,-0.017022137,0.006913763
1.376,-0.005169891,-0.001637857,0.075734047,-0.017022002,0.006914634
1.38,-0.005171601,-0.001639064,0.075734117,-0.017023443,0.006914567
1.384,-0.005171902,-0.001640908,0.075733945,-0.017022975,0.006913796
1.388,-0.005172908,-0.00164121,0.07573482,-0.017021266,0.006914098
1.392,-0.00517197,-0.00164064,0.075735461,-0.017019254,0.006915908
1.396,-0.005169924,-0.001641613,0.075733813,-0.017018783,0.006915606
1.4,-0.00516979,-0.001642484,0.075732945,-0.017019857,0.006914936
1.404,-0.005171467,-0.001642987,0.075733047,-0.017019789,0.006914936
1.408,-0.005172338,-0.001643054,0.075732773,-0.017017945,0.006915171
1.412,-0.005172976,-0.001642384,0.075732906,-0.017016906,0.006917652
1.416,-0.00517321,-0.001641311,0.075732805,-0.017018314,0.006919596
1.42,-0.005172674,-0.001641948,0.075731133,-0.017019387,0.0069202
1.424,-0.005173177,-0.001643222,0.075729453,-0.01701942,0.006920133
1.428,-0.005175121,-0.001644462,0.075728586,-0.017016939,0.006921004
1.432,-0.005176898,-0.001646105,0.075727945,-0.017013553,0.006922379
1.436,-0.005178407,-0.001648385,0.075727609,-0.017012078,0.006924257
1.44,-0.005179547,-0.001649491,0.075726906,-0.017015029,0.006924592
1.444,-0.005179815,-0.001649793,0.075727344,-0.017019857,0.00692486
1.448,-0.005180016,-0.001648989,0.075728852,-0.017021533,0.006926302
1.452,-0.005179178,-0.00164862,0.075728789,-0.01702026,0.006927844
1.456,-0.005178206,-0.001648016,0.075727844,-0.017020594,0.006928951
1.46,-0.005178977,-0.001647849,0.075727242,-0.017020527,0.006927911
1.464,-0.005180485,-0.001648922,0.075726273,-0.01701932,0.006926805
1.468,-0.005181089,-0.00164929,0.075727008,-0.017018113,0.006926335
1.472,-0.005181592,-0.001648787,0.075728281,-0.01701741,0.006926604
1.476,-0.005183671,-0.001648251,0.07572875,-0.017017744,0.006927241
1.48,-0.005188868,-0.00164748,0.075729453,-0.017019621,0.00692714
1.484,-0.005190879,-0.00164805,0.075730258,-0.017020896,0.006926269
1.488,-0.005188733,-0.001647178,0.075731766,-0.017022203,0.006925866
1.492,-0.005186688,-0.001646675,0.075732438,-0.017023109,0.006927576
1.496,-0.00518538,-0.001646742,0.075731672,-0.017024316,0.006928414
1.5,-0.005186587,-0.001647245,0.075731031,-0.017026361,0.006927978
1.504,-0.005186554,-0.001647212,0.075731766,-0.017028709,0.00692771
1.508,-0.005185079,-0.001646876,0.075731836,-0.017029646,0.006927643
1.512,-0.005184308,-0.001646843,0.075732141,-0.017029445,0.006927978
1.516,-0.005184341,-0.001645736,0.075733141,-0.017030553,0.006927777
1.52,-0.005185414,-0.001645166,0.075732102,-0.017029109,0.006926537
1.524,-0.005186152,-0.00164634,0.075731102,-0.0170271,0.006923988
1.528,-0.00518709,-0.001647279,0.075731164,-0.017024986,0.006923385
1.532,-0.005187057,-0.001647145,0.075730359,-0.017022203,0.006923754
1.536,-0.005187258,-0.001647513,0.075729594,-0.017021197,0.006923385
1.54,-0.005188331,-0.001648251,0.075728117,-0.017022674,0.006921642
1.544,-0.005188767,-0.001649223,0.075727344,-0.017023377,0.006920066
1.548,-0.00518984,-0.001649726,0.07572825,-0.017022104,0.006919529
1.552,-0.005190979,-0.001650129,0.075728414,-0.017018582,0.006919797
1.556,-0.00519279,-0.001651201,0.075728016,-0.017016471,0.006920133
1.56,-0.005194567,-0.001653247,0.075726875,-0.017015465,0.006918658
1.564,-0.005196277,-0.001655359,0.075726133,-0.017014961,0.006916646
1.568,-0.005197484,-0.001657069,0.07572657,-0.017013453,0.006915271
1.572,-0.005197954,-0.001657806,0.075726672,-0.017012547,0.006916847
1.576,-0.005198389,-0.001657907,0.075726305,-0.017012279,0.006917316
1.58,-0.005199529,-0.001658611,0.075725,-0.017013285,0.006915908
1.584,-0.005200334,-0.001658544,0.075724766,-0.017015666,0.00691554
1.588,-0.00519963,-0.001657303,0.075725602,-0.017017846,0.006916177
1.592,-0.005198356,-0.001654319,0.075725898,-0.017019119,0.00691678
1.596,-0.00519849,-0.001651872,0.075726438,-0.017022002,0.006917719
1.6,-0.005197886,-0.001650933,0.075727141,-0.017027301,0.006917451
1.604,-0.005196009,-0.001650799,0.075726938,-0.017030316,0.006917048
1.608,-0.005193997,-0.001650464,0.075727578,-0.017032363,0.006917417
1.612,-0.005193796,-0.001650028,0.075727344,-0.017032061,0.006919228
1.616,-0.005194333,-0.001649257,0.075727141,-0.017032061,0.006920636
1.62,-0.005194333,-0.001649726,0.075726742,-0.017032664,0.006920133
1.624,-0.005195305,-0.001650698,0.075728148,-0.017033771,0.006919261
1.628,-0.005194802,-0.001651302,0.075729289,-0.01703424,0.006919932
1.632,-0.005193461,-0.001650296,0.075730023,-0.017034408,0.00692144
1.636,-0.005193562,-0.00164919,0.07573093,-0.017034576,0.006920736
1.64,-0.005193427,-0.001648922,0.075731336,-0.01703585,0.006918222
1.644,-0.005193226,-0.001648922,0.075731531,-0.017036186,0.006915003
1.648,-0.005193494,-0.001648687,0.075731766,-0.017034174,0.006913796
1.652,-0.005193562,-0.001647681,0.075732141,-0.01703243,0.006913595
1.656,-0.00519564,-0.001646273,0.075731969,-0.017032061,0.006913494
1.66,-0.005199261,-0.001645669,0.075731766,-0.017032262,0.006914299
1.664,-0.005201507,-0.001645267,0.075732203,-0.017032631,0.006914601
1.668,-0.0052003,-0.001644161,0.075733984,-0.01703424,0.006914701
1.672,-0.005200703,-0.001642719,0.075735492,-0.017035514,0.006916143
1.676,-0.005204692,-0.001641177,0.075736563,-0.01703548,0.006916109
1.68,-0.00520476,-0.001641311,0.075735828,-0.01703518,0.006914333
1.684,-0.005203687,-0.00164225,0.07573475,-0.017035145,0.006911952
1.688,-0.005202614,-0.001642719,0.075734953,-0.017035514,0.006910779
1.692,-0.005202513,-0.001642853,0.07573532,-0.01703491,0.006912019
1.696,-0.005202111,-0.001643624,0.075733578,-0.017034811,0.006912086
1.7,-0.005202714,-0.001644764,0.075732273,-0.017035748,0.006911315
1.704,-0.005202982,-0.001645401,0.075732141,-0.017036588,0.006911147
1.708,-0.005203184,-0.001646072,0.075732805,-0.017036621,0.006912656
1.712,-0.005203352,-0.001645099,0.075733648,-0.017037123,0.00691326
1.716,-0.005202714,-0.001645368,0.075732273,-0.017036754,0.006912254
1.72,-0.005203586,-0.001648184,0.075730766,-0.017035381,0.00691041
1.724,-0.005204927,-0.001649961,0.075731336,-0.017036352,0.006909907
1.728,-0.005204391,-0.001650196,0.075732,-0.017038834,0.006910879
1.732,-0.005202849,-0.001649123,0.075732711,-0.017041717,0.006912891
1.736,-0.005203553,-0.001648385,0.075732539,-0.017042254,0.006914232
1.74,-0.005204357,-0.001648452,0.075732203,-0.017042186,0.006912187
1.744,-0.005203787,-0.001649022,0.075732102,-0.017042621,0.006908599
1.748,-0.00520305,-0.001649961,0.075732039,-0.017043627,0.006907962
1.752,-0.005201239,-0.001649123,0.075733047,-0.017045137,0.006909404
1.756,-0.005201004,-0.001648586,0.075732711,-0.017044834,0.006909136
1.76,-0.005202681,-0.001649089,0.075731164,-0.017043461,0.006906554
1.764,-0.005203184,-0.001649659,0.075730633,-0.017043125,0.006904375
1.768,-0.005204491,-0.001649391,0.075732141,-0.017043059,0.006905448
1.772,-0.00520533,-0.001649156,0.075732539,-0.01703984,0.006906655
1.776,-0.00520543,-0.001649793,0.075730961,-0.01703776,0.006906353
1.78,-0.00520667,-0.001650631,0.075730258,-0.017038465,0.006904207
1.784,-0.005207945,-0.001651604,0.075730633,-0.017038197,0.006903235
1.788,-0.005207408,-0.001652609,0.075730461,-0.01703652,0.006903302
1.792,-0.005206201,-0.001652744,0.075730766,-0.017037291,0.00690233
1.796,-0.005206872,-0.001653012,0.075732,-0.01703957,0.006901894
1.8,-0.005207475,-0.001653984,0.075732039,-0.017042621,0.006901458
1.804,-0.005208883,-0.001653817,0.075731531,-0.017045002,0.006899949
1.808,-0.00520999,-0.001652475,0.075733281,-0.01704792,0.006899916
1.812,-0.00521009,-0.001650531,0.075734656,-0.017049932,0.006901592
1.816,-0.005209856,-0.001649626,0.075735188,-0.017050602,0.006901592
1.82,-0.005209722,-0.001650464,0.075734281,-0.017051037,0.006900586
1.824,-0.005209923,-0.001651537,0.075732641,-0.017051473,0.006899211
1.828,-0.00520942,-0.001652107,0.075732977,-0.017052512,0.006899111
1.832,-0.005208347,-0.001651637,0.075733945,-0.017051943,0.006899681
1.836,-0.005209252,-0.001651805,0.075733141,-0.017049662,0.00689891
1.84,-0.005211432,-0.001652677,0.075732711,-0.017048691,0.006898105
1.844,-0.005213275,-0.001653682,0.075732438,-0.017046479,0.006895423
1.848,-0.005213108,-0.001654219,0.075732539,-0.017044467,0.006894384
1.852,-0.005212337,-0.001652542,0.075734281,-0.017045639,0.006895322
1.856,-0.00521123,-0.001651201,0.07573532,-0.017045539,0.006895356
1.86,-0.005211096,-0.001652341,0.07573425,-0.017047014,0.00689549
1.864,-0.005211432,-0.001654118,0.075732406,-0.017049361,0.006895255
1.868,-0.005211062,-0.001654957,0.075732906,-0.01704916,0.006895121
1.872,-0.005209587,-0.001654051,0.075734117,-0.01704802,0.006896161
1.876,-0.005209856,-0.001652744,0.075733547,-0.017046344,0.006895758
1.88,-0.005209554,-0.001652375,0.075732273,-0.01704584,0.006893244
1.884,-0.005210392,-0.001653112,0.075732477,-0.017044633,0.006892271
1.888,-0.005213343,-0.001651604,0.075734891,-0.017043996,0.006893747
1.892,-0.005211733,-0.001648419,0.075736828,-0.01704517,0.00689549
1.896,-0.00520771,-0.00164634,0.075737164,-0.017047953,0.006894819
1.9,-0.005206167,-0.001646005,0.075736297,-0.017051037,0.006893411
1.904,-0.005206235,-0.00164748,0.075736125,-0.017052949,0.006892875
1.908,-0.005206704,-0.00164805,0.075737633,-0.017053217,0.006893109
1.912,-0.005205463,-0.001647681,0.07573757,-0.017052848,0.006894484
1.916,-0.005204189,-0.001648016,0.075737133,-0.017052881,0.006895155
1.92,-0.005205598,-0.001649123,0.075737266,-0.017052814,0.006894316
1.924,-0.005205732,-0.001650162,0.075737469,-0.017052076,0.006891299
1.928,-0.005204625,-0.00165043,0.075737102,-0.017051674,0.006891098
1.932,-0.005204391,-0.001649927,0.075737805,-0.017051506,0.006891634
1.936,-0.005206167,-0.001649559,0.075738203,-0.01705077,0.006891198
1.94,-0.005207173,-0.001650766,0.075736734,-0.017048355,0.00688922
1.944,-0.005207676,-0.00165214,0.075735523,-0.017046242,0.006887007
1.948,-0.005206704,-0.001652408,0.075736062,-0.017046812,0.006887175
1.952,-0.005205631,-0.001652442,0.075735727,-0.017046242,0.006887879
1.956,-0.005205396,-0.00165328,0.075734891,-0.017045137,0.006888382
1.96,-0.005205463,-0.001654051,0.075733945,-0.017045506,0.006887175
1.964,-0.005205497,-0.001654889,0.075733344,-0.017046947,0.006885264
1.968,-0.005204692,-0.001654386,0.075733883,-0.01704916,0.00688513
1.972,-0.00520372,-0.001653817,0.075735461,-0.017049965,0.006886672
1.976,-0.005202681,-0.001652542,0.075735461,-0.017051004,0.006886504
1.98,-0.005203787,-0.001651201,0.075735359,-0.017052178,0.006884896
1.984,-0.005203385,-0.001651771,0.075736398,-0.017053385,0.006883387
1.988,-0.005202278,-0.001652811,0.075737367,-0.017053385,0.006882347
1.992,-0.005202446,-0.001652442,0.075738406,-0.017051908,0.006883252
1.996,-0.005203653,-0.001653381,0.075737398,-0.017048824,0.006883655
2,-0.005204625,-0.001655795,0.075735492,-0.017046443,0.006880973
2.004,-0.005204692,-0.001657136,0.075734852,-0.017046109,0.006878156
2.008,-0.005203586,-0.001657069,0.075734852,-0.017044197,0.006876949
2.012,-0.005201675,-0.001655996,0.075733813,-0.017043393,0.006876882
2.016,-0.005201843,-0.001654923,0.075734117,-0.017043561,0.006876815
2.02,-0.005203821,-0.001655024,0.075734656,-0.017044398,0.006875004
2.024,-0.005205396,-0.001655661,0.075736227,-0.017046812,0.006873529
2.028,-0.005206469,-0.001654554,0.07573807,-0.017048455,0.00687373
2.032,-0.005205598,-0.001653414,0.075738742,-0.017049629,0.00687477
2.036,-0.005205698,-0.001653817,0.075738773,-0.017051037,0.006875809
2.04,-0.005209219,-0.001654554,0.075738844,-0.0170505,0.006875541
2.044,-0.005210292,-0.001655828,0.075738813,-0.017049764,0.006874468
2.048,-0.00520838,-0.001655962,0.075740016,-0.01705077,0.006874301
2.052,-0.005206972,-0.001653448,0.07574193,-0.017053115,0.006874736
2.056,-0.005206034,-0.001651034,0.075742938,-0.017054625,0.0068742
2.06,-0.005206637,-0.001651369,0.075741094,-0.017054021,0.006873429
2.064,-0.005209722,-0.001652107,0.075741289,-0.017053049,0.006873127
2.068,-0.005210929,-0.001652542,0.075741859,-0.017052244,0.006872959
2.072,-0.005210593,-0.001652107,0.075741492,-0.017052178,0.0068742
2.076,-0.005212169,-0.001653146,0.075740422,-0.017052311,0.006876279
2.08,-0.005214684,-0.001655292,0.075739484,-0.017051875,0.006874602
2.084,-0.005216997,-0.001657236,0.075739078,-0.017051674,0.006873026
2.088,-0.00521817,-0.001657873,0.075739852,-0.017051707,0.006873127
2.092,-0.005218573,-0.001656834,0.075741758,-0.017053115,0.006875206
2.096,-0.005219948,-0.001656499,0.075741094,-0.017054055,0.006876581
2.1,-0.005221624,-0.001657605,0.075740523,-0.017054658,0.006875038
2.104,-0.005223334,-0.001657873,0.075741328,-0.017056133,0.006873965
2.108,-0.005221926,-0.001656968,0.075742563,-0.017057777,0.006874871
2.112,-0.00522092,-0.00165613,0.075742867,-0.017057576,0.006876379
2.116,-0.005222261,-0.001657337,0.075742195,-0.017055463,0.00687591
2.12,-0.005226921,-0.001659114,0.075741258,-0.017052848,0.006875776
2.124,-0.005229268,-0.001660187,0.075740719,-0.017052814,0.006875038
2.128,-0.005229034,-0.001661193,0.075740188,-0.017050836,0.006874938
2.132,-0.005227994,-0.001660656,0.075739578,-0.017048959,0.00687477
2.136,-0.005227123,-0.001661561,0.075738008,-0.017050434,0.006874133
2.14,-0.005227022,-0.001662333,0.075737133,-0.017052914,0.006872624
2.144,-0.005227223,-0.001662534,0.075737367,-0.017056066,0.006871518
2.148,-0.005225781,-0.00166126,0.075738172,-0.017058313,0.006871149
2.152,-0.005224642,-0.001659717,0.075740117,-0.017059387,0.006872289
2.156,-0.005224071,-0.001659583,0.075740656,-0.017060928,0.006871518
2.16,-0.005225413,-0.00165898,0.075741422,-0.017061096,0.006869271
2.164,-0.005226251,-0.001659248,0.075741859,-0.017061867,0.006868266
2.168,-0.005226251,-0.001660422,0.075741227,-0.017060727,0.006867461
2.172,-0.005226318,-0.001660455,0.075740352,-0.017059688,0.006866924
2.176,-0.005225312,-0.001661394,0.075738914,-0.017059486,0.006866455
2.18,-0.005223971,-0.001663707,0.075737,-0.017060225,0.006864544
2.184,-0.00522377,-0.001666356,0.075735055,-0.017059621,0.006863236
2.188,-0.005224004,-0.001668368,0.075734719,-0.017058984,0.006863706
2.192,-0.005223803,-0.001667932,0.075735023,-0.01706133,0.006864578
2.196,-0.005223032,-0.001666423,0.075735461,-0.017062336,0.006863304
2.2,-0.005223501,-0.001666356,0.075736898,-0.017062068,0.006860856
2.204,-0.005225513,-0.001666825,0.075738641,-0.017061498,0.006859683
2.208,-0.005225748,-0.001665115,0.075741695,-0.017062,0.006859951
2.212,-0.005222563,-0.001662266,0.075743336,-0.017064113,0.00686099
2.216,-0.005218975,-0.001661763,0.075740352,-0.017065186,0.006859951
2.22,-0.005217768,-0.001662668,0.075739008,-0.017064449,0.006857403
2.224,-0.005218338,-0.001663674,0.075740148,-0.017063342,0.006856196
2.228,-0.005217667,-0.001663674,0.075741023,-0.017063912,0.006856967
2.232,-0.005216259,-0.001662869,0.075741828,-0.017064684,0.006858576
2.236,-0.005216293,-0.001662031,0.075741656,-0.017065789,0.006858509
2.24,-0.005217601,-0.001662299,0.075741094,-0.017066494,0.006857872
2.244,-0.005216695,-0.001663037,0.075740484,-0.017065789,0.006857604
2.248,-0.00521636,-0.0016624,0.075740719,-0.017066023,0.006859515
2.252,-0.005216494,-0.001661997,0.075741492,-0.017064951,0.006860789
2.256,-0.005216796,-0.001662266,0.075741898,-0.017062873,0.006861225
2.26,-0.005217366,-0.001663942,0.075740891,-0.017062102,0.006860051
2.264,-0.005218439,-0.001665819,0.075740484,-0.017062537,0.00685928
2.268,-0.005219981,-0.001666021,0.07574193,-0.017063443,0.006861761
2.272,-0.005219076,-0.001664378,0.075742867,-0.017063945,0.006865147
2.276,-0.00521693,-0.00166354,0.075742766,-0.017066359,0.006866321
2.28,-0.005216863,-0.001664612,0.075742766,-0.017068137,0.006866589
2.284,-0.005216863,-0.001665786,0.075743602,-0.017069545,0.006867394
2.288,-0.005214751,-0.001665551,0.075744172,-0.017070383,0.006868735
2.292,-0.00521284,-0.001664881,0.075743938,-0.017070785,0.006871015
2.296,-0.005214449,-0.001663305,0.075744242,-0.017071455,0.006872691
2.3,-0.005216125,-0.001663774,0.075744172,-0.017071689,0.006873026
2.304,-0.005216796,-0.00166535,0.075743672,-0.017070752,0.006872088
2.308,-0.005216327,-0.001665585,0.075743266,-0.017070316,0.006873094
2.312,-0.005215053,-0.001665115,0.075743641,-0.017069377,0.0068741
2.316,-0.0052175,-0.001665384,0.07574407,-0.017068473,0.006874803
2.32,-0.005217869,-0.001667798,0.075742602,-0.017068371,0.0068741
2.324,-0.005217768,-0.00167048,0.075741023,-0.017069209,0.006872792
2.328,-0.005216963,-0.001671419,0.075742398,-0.017070551,0.006872691
2.332,-0.005214583,-0.00167105,0.075743031,-0.017070283,0.006873831
2.336,-0.005214349,-0.001671687,0.075741258,-0.017069143,0.006874301
2.34,-0.005216595,-0.001673095,0.075739617,-0.017068404,0.006873462
2.344,-0.00521921,-0.001673162,0.075740484,-0.017069109,0.006873362
2.348,-0.005220082,-0.00167162,0.075742266,-0.017070986,0.006874837
2.352,-0.005220417,-0.00167001,0.07574307,-0.017069947,0.006876446
2.356,-0.005220551,-0.001670714,0.075742531,-0.017068137,0.006875776
2.36,-0.005221825,-0.001672458,0.075741961,-0.017066662,0.006874267
2.364,-0.005222361,-0.001674067,0.075742195,-0.017066293,0.006872591
2.368,-0.005221154,-0.001675073,0.075743305,-0.017066092,0.006871719
2.372,-0.005220383,-0.001675609,0.075743203,-0.017064348,0.006871417
2.376,-0.005222328,-0.001675911,0.075742398,-0.017062537,0.006869942
2.38,-0.005223837,-0.001677252,0.075740586,-0.017060525,0.006868165
2.384,-0.005225044,-0.001678258,0.07574025,-0.017059486,0.00686669
2.388,-0.005224574,-0.001678124,0.075742063,-0.017060895,0.006867327
2.392,-0.005223367,-0.001677453,0.075741859,-0.01706123,0.006868433
2.396,-0.005223267,-0.001677588,0.075741625,-0.017061766,0.0068685
2.4,-0.005224574,-0.001677085,0.075741523,-0.017063375,0.00686793
2.404,-0.005224608,-0.001676448,0.07574243,-0.017065621,0.006866757
2.408,-0.005222294,-0.00167628,0.075743773,-0.017066393,0.006866489
2.412,-0.005220886,-0.001676247,0.075744445,-0.017064482,0.00686783
2.416,-0.005220786,-0.001675509,0.075745016,-0.017063006,0.006867595
2.42,-0.005222462,-0.001675274,0.075745109,-0.017064281,0.006866321
2.424,-0.005222898,-0.00167628,0.075745281,-0.017064852,0.006866556
2.428,-0.00522216,-0.00167685,0.075745719,-0.017064918,0.006867059
2.432,-0.005222361,-0.001676079,0.075746484,-0.017064615,0.006868366
2.436,-0.005224139,-0.001675609,0.075746555,-0.017063744,0.006869137
2.44,-0.005226284,-0.001676951,0.075745617,-0.017062336,0.0068684
2.444,-0.005227994,-0.001677353,0.075745719,-0.017062973,0.006867394
2.448,-0.005228162,-0.001676012,0.075748133,-0.017064248,0.006867528
2.452,-0.005226318,-0.001673967,0.075749039,-0.017063074,0.006867427
2.456,-0.005224742,-0.001673061,0.075748805,-0.017063609,0.00686726
2.46,-0.005223937,-0.00167286,0.07574857,-0.017064684,0.006865684
2.464,-0.00522377,-0.001672625,0.075749133,-0.017063879,0.006864142
2.468,-0.005222596,-0.001671586,0.075750375,-0.017063309,0.006865147
2.472,-0.005223099,-0.001670748,0.075750578,-0.017062438,0.006868199
2.476,-0.005224004,-0.001671251,0.075748938,-0.017061264,0.006868936
2.48,-0.00522444,-0.001673598,0.075746719,-0.017063006,0.006867796
2.484,-0.005226251,-0.001674168,0.075747523,-0.017066092,0.006867092
2.488,-0.005227123,-0.001674268,0.075749406,-0.017066359,0.006866891
2.492,-0.005227692,-0.001674905,0.075749273,-0.017062939,0.006867059
2.496,-0.005227189,-0.001675945,0.075747727,-0.017061799,0.006866153
2.5,-0.005227592,-0.001677588,0.075745883,-0.017062438,0.006863203
2.504,-0.005229604,-0.001678091,0.07574575,-0.017065086,0.006862164
2.508,-0.005232688,-0.001677554,0.07574575,-0.017066191,0.006863874
2.512,-0.005233794,-0.001677856,0.07574568,-0.017066461,0.006865516
2.516,-0.005232855,-0.001678728,0.075744977,-0.017068035,0.006864376
2.52,-0.005232855,-0.00168027,0.075743539,-0.01706874,0.006862029
2.524,-0.005233526,-0.001681041,0.075743172,-0.017068104,0.006859448
2.528,-0.005234633,-0.001680706,0.075744406,-0.017067801,0.00685928
2.532,-0.00523366,-0.001679432,0.075745352,-0.01706884,0.006860621
2.536,-0.00523299,-0.001679465,0.075745719,-0.017070852,0.006861962
2.54,-0.005234465,-0.00168094,0.075744547,-0.017071725,0.006861862
2.544,-0.005236376,-0.001682483,0.075743602,-0.017071891,0.006860554
2.548,-0.005236577,-0.001683187,0.075743539,-0.01707273,0.006860688
2.552,-0.005236041,-0.001682315,0.075743031,-0.017073334,0.006861929
2.556,-0.005236544,-0.001681544,0.075742031,-0.01707216,0.00686099
2.56,-0.005238958,-0.001683053,0.075740953,-0.017071187,0.006858945
2.564,-0.005239729,-0.001684293,0.075742563,-0.017073133,0.006857335
2.568,-0.005238522,-0.001683656,0.075744477,-0.017075814,0.006858341
2.572,-0.005237717,-0.001682147,0.075745078,-0.017076451,0.006859783
2.576,-0.00523822,-0.001682147,0.075744109,-0.017075311,0.006860152
2.58,-0.005239327,-0.001683421,0.075743203,-0.017075346,0.006859247
2.584,-0.005239528,-0.001684796,0.075743805,-0.017076451,0.006858375
2.588,-0.005236979,-0.001684662,0.075744641,-0.017077021,0.006858576
2.592,-0.005235035,-0.001684226,0.075744141,-0.017077189,0.006858945
2.596,-0.005234968,-0.001684293,0.075742867,-0.017077156,0.006857872
2.6,-0.005236645,-0.001684662,0.075742531,-0.017080174,0.006857939
2.604,-0.005237617,-0.001684461,0.075742664,-0.017083693,0.006858274
2.608,-0.005236913,-0.001684293,0.0757435,-0.017083559,0.006858643
2.612,-0.005236376,-0.001683187,0.075744008,-0.017082051,0.006859481
2.616,-0.00523708,-0.001681846,0.075743031,-0.017080408,0.006859347
2.62,-0.005238991,-0.001682617,0.075741898,-0.017079168,0.006858609
2.624,-0.005240165,-0.001684561,0.075740922,-0.01707776,0.006857302
2.628,-0.005240299,-0.001685232,0.075740719,-0.01707682,0.006857604
2.632,-0.005240534,-0.001685131,0.075740523,-0.017075512,0.006858509
2.636,-0.005241774,-0.001685534,0.075740688,-0.017076553,0.00685918
2.64,-0.005241741,-0.00168607,0.075741422,-0.017080709,0.006858208
2.644,-0.005241372,-0.001685768,0.075741758,-0.017083324,0.006857403
2.648,-0.005241606,-0.001684796,0.0757425,-0.017084633,0.006858945
2.652,-0.005241372,-0.001683254,0.075743367,-0.017087281,0.006860856
2.656,-0.005242847,-0.00168198,0.075744578,-0.01708993,0.006862197
2.66,-0.005243518,-0.001682382,0.075744641,-0.017090566,0.006861225
2.664,-0.005243618,-0.001683522,0.075743836,-0.017088723,0.006859012
2.668,-0.005243484,-0.001684528,0.075743602,-0.01708775,0.006859012
2.672,-0.005243316,-0.001684092,0.075744109,-0.01708708,0.006860454
2.676,-0.005243886,-0.001684226,0.075742938,-0.0170849,0.006860454
2.68,-0.005246971,-0.001686137,0.075742297,-0.017084264,0.006859347
2.684,-0.00524925,-0.001687914,0.075742867,-0.017084063,0.006858274
2.688,-0.005248043,-0.001687814,0.075743641,-0.017085303,0.006858174
2.692,-0.005246267,-0.001686506,0.075743672,-0.017085504,0.00685804
2.696,-0.005247608,-0.001686707,0.075743102,-0.017084967,0.006857503
2.7,-0.005248178,-0.001688182,0.075741188,-0.01708376,0.006854754
2.704,-0.005248043,-0.001688987,0.075740688,-0.017086041,0.006853647
2.708,-0.005246971,-0.001688685,0.075741055,-0.01708899,0.006854083
2.712,-0.005245194,-0.001687411,0.075741258,-0.017091338,0.006855525
2.716,-0.005243719,-0.001686305,0.075741492,-0.017093182,0.00685586
2.72,-0.005243685,-0.001686305,0.075741563,-0.017095998,0.006855291
2.724,-0.005244021,-0.001687914,0.075741594,-0.017095428,0.006854653
2.728,-0.005244423,-0.001688953,0.075741422,-0.017091338,0.006853882
2.732,-0.005244322,-0.001689121,0.075740852,-0.017088588,0.006854519
2.736,-0.005245361,-0.001689758,0.075739914,-0.017088219,0.006854418
2.74,-0.005246099,-0.001690529,0.075739344,-0.017089426,0.006852172
2.744,-0.005247004,-0.001690295,0.075740656,-0.017089158,0.006851736
2.748,-0.005246099,-0.001690429,0.075741992,-0.017089662,0.006853815
2.752,-0.0052462,-0.001690026,0.075741188,-0.017090834,0.006855726
2.756,-0.005247373,-0.001690697,0.075739984,-0.017091203,0.006855492
2.76,-0.005248043,-0.001691569,0.075739914,-0.017092008,0.006853178
2.764,-0.005247977,-0.001692675,0.075740422,-0.017093014,0.006851669
2.768,-0.005247272,-0.001692876,0.075740789,-0.017093551,0.006852977
2.772,-0.005247306,-0.001691971,0.075741523,-0.017093383,0.006854016
2.776,-0.005248211,-0.001691133,0.075741594,-0.017093818,0.006854285
2.78,-0.005248848,-0.001690697,0.075740852,-0.017095629,0.006853581
2.784,-0.005249385,-0.001689993,0.075742094,-0.017098379,0.006853916
2.788,-0.005248278,-0.001688752,0.0757425,-0.017099754,0.006854921
2.792,-0.005247608,-0.001688652,0.075742766,-0.01709915,0.00685633
2.796,-0.005248479,-0.00168949,0.075741797,-0.017099115,0.006856766
2.8,-0.00524962,-0.001691602,0.075740219,-0.01709868,0.006857101
2.804,-0.005250391,-0.001693882,0.075738742,-0.017097742,0.006856766
2.808,-0.005251128,-0.001694486,0.075738508,-0.017096938,0.006856196
2.812,-0.005250659,-0.001693178,0.075739445,-0.017097809,0.006855022
2.816,-0.005250592,-0.001692072,0.075739484,-0.01709858,0.006854519
2.82,-0.005252905,-0.001692373,0.075739648,-0.017098346,0.006854821
2.824,-0.005254246,-0.001692776,0.075740453,-0.017098346,0.006853647
2.828,-0.005254213,-0.001692474,0.075740086,-0.01709801,0.006852575
2.832,-0.005253576,-0.001692507,0.075740188,-0.017098346,0.006853983
2.836,-0.005254582,-0.001693949,0.075740016,-0.017098211,0.006853782
2.84,-0.005255386,-0.001697101,0.07573757,-0.017096266,0.006852172
2.844,-0.005255822,-0.001698978,0.075736734,-0.017095764,0.006851133
2.848,-0.005256526,-0.001698107,0.075737336,-0.017094857,0.006851167
2.852,-0.005256292,-0.001695994,0.075738242,-0.017094221,0.006851804
2.856,-0.005256191,-0.001695357,0.075737805,-0.017094791,0.006851569
2.86,-0.005258001,-0.001695927,0.07573693,-0.017094455,0.006849624
2.864,-0.005260181,-0.001696363,0.075737133,-0.017094557,0.006848551
2.868,-0.005258806,-0.00169586,0.075738977,-0.017096635,0.006849322
2.872,-0.005257029,-0.001694888,0.075739242,-0.017097641,0.006850798
2.876,-0.005258538,-0.001695223,0.075738375,-0.017099283,0.006850764
2.88,-0.005260281,-0.001696631,0.0757375,-0.017100256,0.006850496
2.884,-0.005260013,-0.001698207,0.075737336,-0.017101229,0.006849993
2.888,-0.005258437,-0.001699146,0.075738406,-0.017101295,0.006850865
2.892,-0.005256861,-0.001699884,0.075738578,-0.017101967,0.006852508
2.896,-0.00525713,-0.001699481,0.075738344,-0.017104313,0.006851904
2.9,-0.00525827,-0.001698643,0.075738945,-0.017107699,0.006850664
2.904,-0.005257935,-0.001697369,0.075740992,-0.017109342,0.006850597
2.908,-0.005256258,-0.001695458,0.075741594,-0.017108537,0.006850865
2.912,-0.005255621,-0.001694117,0.075741156,-0.017106156,0.00685063
2.916,-0.005256861,-0.001693647,0.075740453,-0.017104982,0.006849893
2.92,-0.005258236,-0.001694787,0.075739344,-0.017104982,0.006848987
2.924,-0.005257935,-0.001696397,0.075737906,-0.017103742,0.006848048
2.928,-0.005258907,-0.001696732,0.075737539,-0.017103475,0.006848183
2.932,-0.00525894,-0.001696464,0.075738477,-0.017103844,0.006849423
2.936,-0.005258336,-0.001696531,0.075738742,-0.017104045,0.00684949
2.94,-0.005258605,-0.001697235,0.075738578,-0.017104045,0.006848384
2.944,-0.005258404,-0.001697704,0.075738508,-0.017104748,0.006846305
2.948,-0.005257532,-0.001697235,0.075738945,-0.017105787,0.006845266
2.952,-0.005257834,-0.001696397,0.075739414,-0.017105352,0.006845869
2.956,-0.005258839,-0.001695659,0.075738844,-0.017104648,0.006846741
2.96,-0.005260382,-0.001696866,0.075737805,-0.01710324,0.006845802
2.964,-0.00526112,-0.001698677,0.075737703,-0.017103977,0.006844159
2.968,-0.005260918,-0.001699347,0.075739078,-0.017106459,0.006845064
2.972,-0.005259611,-0.001699079,0.075740086,-0.017107699,0.006845802
2.976,-0.005259543,-0.001699313,0.075740016,-0.017107264,0.006845702
2.98,-0.005261522,-0.001699515,0.075738578,-0.017106492,0.006843958
2.984,-0.005262796,-0.001700286,0.07573807,-0.017105621,0.006842684
2.988,-0.005262595,-0.001699816,0.075738945,-0.01710552,0.006842147
2.992,-0.005260851,-0.001698073,0.07574025,-0.017108438,0.006842181
2.996,-0.005258772,-0.001697067,0.075739516,-0.017110281,0.006841511
3,-0.005259007,-0.001698274,0.075737539,-0.017110549,0.006840337
3.004,-0.005260248,-0.001700085,0.075736695,-0.017111018,0.006840505
3.008,-0.005260147,-0.001700252,0.0757375,-0.017112594,0.00684198
3.012,-0.005259208,-0.001699984,0.075737906,-0.017114035,0.00684322
3.016,-0.005259108,-0.001699481,0.075737305,-0.017114572,0.006843321
3.02,-0.005259913,-0.001699917,0.075737305,-0.017114539,0.00684094
3.024,-0.005260281,-0.001700789,0.075738273,-0.017114104,0.006839499
3.028,-0.005260952,-0.001700554,0.075739914,-0.017114068,0.00683923
3.032,-0.005259477,-0.00169814,0.075741625,-0.017115914,0.006840069
3.036,-0.005259108,-0.001697536,0.07574082,-0.017116551,0.006840739
3.04,-0.005260549,-0.001699313,0.075739008,-0.017115311,0.006839432
3.044,-0.005261455,-0.001701325,0.075738344,-0.017114773,0.00683799
3.048,-0.005262058,-0.00170042,0.075739516,-0.01711608,0.006838728
3.052,-0.005262125,-0.001699012,0.075740922,-0.017119299,0.006842081
3.056,-0.005261488,-0.001699649,0.075740523,-0.01712101,0.006843187
3.06,-0.005261287,-0.001700588,0.075739953,-0.017121982,0.006842215
3.064,-0.005260583,-0.001701124,0.075740219,-0.017121512,0.006841175
3.068,-0.00526075,-0.001701359,0.075742094,-0.017121379,0.006840739
3.072,-0.00526122,-0.001700822,0.075743367,-0.017121178,0.006841645
3.076,-0.005262092,-0.001701459,0.075743031,-0.017120104,0.006840807
3.08,-0.005263667,-0.001703136,0.075741594,-0.017116986,0.006838896
3.084,-0.005265545,-0.001704242,0.075741656,-0.017115275,0.00683742
3.088,-0.005266719,-0.00170327,0.075743438,-0.017114639,0.006837621
3.092,-0.005267758,-0.001702599,0.075744109,-0.017113131,0.006839197
3.096,-0.005268596,-0.001703203,0.075743672,-0.017112795,0.006840505
3.1,-0.005269937,-0.001704678,0.075742297,-0.017112662,0.006840002
3.104,-0.005271245,-0.001705449,0.075741828,-0.017111789,0.006839197
3.108,-0.005270742,-0.001705449,0.075742164,-0.017112461,0.00683923
3.112,-0.005269267,-0.001705147,0.075742836,-0.017114605,0.006840002
3.116,-0.005269468,-0.001705684,0.075742094,-0.017114873,0.006840706
3.12,-0.005269703,-0.001707427,0.075740656,-0.017115377,0.006839633
3.124,-0.005269032,-0.00170783,0.075741055,-0.017116584,0.006838158
3.128,-0.00526873,-0.00170726,0.075742328,-0.017116885,0.006838962
3.132,-0.005267389,-0.001705416,0.075744273,-0.017119098,0.006840874
3.136,-0.005267389,-0.001706019,0.075744477,-0.017118563,0.006841276
3.14,-0.005270038,-0.001707494,0.075743367,-0.017115578,0.006840404
3.144,-0.005270708,-0.001708265,0.075743938,-0.017115477,0.006839331
3.148,-0.005269401,-0.001707193,0.075745719,-0.017116449,0.006839164
3.152,-0.00526816,-0.001705516,0.075747055,-0.017117523,0.006841041
3.156,-0.005268328,-0.001704544,0.075747664,-0.017119166,0.006841511
3.16,-0.005269535,-0.001704913,0.075748,-0.01712034,0.006841343
3.164,-0.005270641,-0.00170508,0.075748969,-0.017120004,0.006842114
3.168,-0.005269099,-0.001704779,0.075749305,-0.017121211,0.006844595
3.172,-0.00526588,-0.001704946,0.075747859,-0.017123592,0.00684597
3.176,-0.005264338,-0.001705952,0.075746859,-0.017126676,0.006844461
3.18,-0.005264472,-0.001707125,0.075746656,-0.017129291,0.006842248
3.184,-0.005265713,-0.001707394,0.075748062,-0.01712842,0.006839834
3.188,-0.005265512,-0.00170669,0.075749539,-0.017126844,0.006838828
3.192,-0.005263734,-0.001706455,0.07575018,-0.01712624,0.006838761
3.196,-0.005263366,-0.001705751,0.075749234,-0.017125971,0.006837051
3.2,-0.005265277,-0.001705449,0.075749203,-0.017127012,0.006836314
3.204,-0.005267054,-0.001705516,0.075750477,-0.01712748,0.006836884
3.208,-0.00526749,-0.001705784,0.075750609,-0.017124865,0.006837755
3.212,-0.005267456,-0.001706421,0.075751117,-0.017121881,0.006837789
3.216,-0.005266618,-0.001706623,0.075751586,-0.01712168,0.006836783
3.22,-0.005266752,-0.00170736,0.075751516,-0.01712215,0.006834369
3.224,-0.005265914,-0.001707092,0.075752758,-0.01712349,0.006833564
3.228,-0.005265847,-0.001706153,0.075754672,-0.017125133,0.006834906
3.232,-0.005266584,-0.001705114,0.075755406,-0.017126541,0.00683732
3.236,-0.005264372,-0.001705281,0.075755273,-0.017127949,0.006836884
3.24,-0.005264875,-0.001707025,0.075754938,-0.017129189,0.006837152
3.244,-0.005265579,-0.00170736,0.075754836,-0.017130531,0.00683799
3.248,-0.005264707,-0.001706354,0.075756375,-0.017132006,0.006839398
3.252,-0.005262125,-0.001704611,0.075757656,-0.01713318,0.006841041
3.256,-0.00526246,-0.001704544,0.075757656,-0.017132645,0.006841242
3.26,-0.005263734,-0.001705684,0.07575668,-0.017132912,0.006840538
3.264,-0.005264707,-0.001706656,0.075756984,-0.017133852,0.00684131
3.268,-0.00526464,-0.001706723,0.075756414,-0.017134086,0.006842751
3.272,-0.005263734,-0.001706924,0.075755,-0.017132107,0.006845668
3.276,-0.005265076,-0.001708131,0.075753094,-0.017130666,0.006846741
3.28,-0.005267557,-0.001709506,0.075751922,-0.017130799,0.006846976
3.284,-0.005267255,-0.00171021,0.075751953,-0.017132846,0.006848048
3.288,-0.00526578,-0.001710545,0.075752492,-0.017133816,0.006849926
3.292,-0.005265377,-0.001710009,0.075753023,-0.017134555,0.006851804
3.296,-0.005264573,-0.001710109,0.075752625,-0.017134957,0.00685063
3.3,-0.00526521,-0.001710713,0.075751688,-0.017135762,0.006849356
3.304,-0.005266015,-0.001712557,0.075751078,-0.017136264,0.006849121
3.308,-0.005266015,-0.001713228,0.07575118,-0.017135258,0.006849423
3.312,-0.005265813,-0.001713697,0.075750914,-0.01713251,0.006851167
3.316,-0.005266082,-0.001715407,0.075749539,-0.017132275,0.006852072
3.32,-0.005267322,-0.001717586,0.075749039,-0.017135695,0.006852508
3.324,-0.005268931,-0.001719095,0.075749172,-0.017137707,0.006853882
3.328,-0.00526977,-0.001719665,0.075750242,-0.017136734,0.006854418
3.332,-0.00526977,-0.001719363,0.075751016,-0.017133918,0.006854653
3.336,-0.005271815,-0.001718894,0.075750313,-0.017131973,0.006853916
3.34,-0.005275771,-0.001718793,0.075751414,-0.017131639,0.006851703
3.344,-0.005278084,-0.001718592,0.07575393,-0.017132408,0.006849591
3.348,-0.005277984,-0.001716849,0.075754063,-0.017132678,0.006847847
3.352,-0.005275604,-0.001715843,0.075753797,-0.017131672,0.006846372
3.356,-0.005276039,-0.001716748,0.075753094,-0.017132141,0.006845936
3.36,-0.005277548,-0.001717988,0.075752352,-0.017133012,0.006845199
3.364,-0.005278286,-0.00171943,0.075751352,-0.017133684,0.00684493
3.368,-0.005279493,-0.001719329,0.07575125,-0.01713318,0.006845366
3.372,-0.005279191,-0.001718894,0.075751547,-0.017133684,0.006847378
3.376,-0.005280063,-0.001720101,0.075750242,-0.01713432,0.006847713
3.38,-0.005280499,-0.001720771,0.075749906,-0.017135494,0.006845668
3.384,-0.005281336,-0.001721106,0.075750844,-0.017135258,0.006842617
3.388,-0.005281169,-0.001719698,0.075752891,-0.017133951,0.006841443
3.392,-0.005280163,-0.001717955,0.075753125,-0.017132309,0.006840773
3.396,-0.005281336,-0.00171819,0.075751383,-0.017131,0.006841276
3.4,-0.005283717,-0.001720671,0.075749742,-0.017131236,0.006841813
3.404,-0.005284187,-0.001722783,0.075749273,-0.017131805,0.006841276
3.408,-0.005283851,-0.001724023,0.075748867,-0.017131738,0.006841611
3.412,-0.005283851,-0.001724057,0.075749039,-0.017132107,0.006843254
3.416,-0.005283918,-0.00172523,0.075748297,-0.01713365,0.00684426
3.42,-0.005285561,-0.001726404,0.075747023,-0.017135023,0.006843791
3.424,-0.00528707,-0.001726639,0.075747359,-0.017136834,0.006842986
3.428,-0.005288478,-0.001725968,0.075748867,-0.017138041,0.006843958
3.432,-0.005288545,-0.001724459,0.075750445,-0.017138344,0.006844998
3.436,-0.005287137,-0.00172456,0.075750109,-0.017138611,0.006844796
3.44,-0.005287438,-0.001726236,0.075748703,-0.017137437,0.006843656
3.444,-0.005288009,-0.001727443,0.075747859,-0.01713784,0.006843254
3.448,-0.005286231,-0.001727074,0.075747562,-0.017139518,0.006843354
3.452,-0.00528536,-0.001726538,0.075747289,-0.017139617,0.006844059
3.456,-0.005286165,-0.001727276,0.075746352,-0.017138109,0.006843288
3.46,-0.005287506,-0.001729086,0.075746016,-0.017138779,0.006841779
3.464,-0.005288009,-0.001730226,0.075747055,-0.017140389,0.006841779
3.468,-0.005286265,-0.001729924,0.075747727,-0.017141461,0.006843455
3.472,-0.005285796,-0.001729924,0.075747055,-0.017139518,0.006843288
3.476,-0.005286902,-0.001730159,0.075745516,-0.017136867,0.006841041
3.48,-0.005288512,-0.001730595,0.075744844,-0.017136098,0.006838325
3.484,-0.00529002,-0.001731165,0.075746422,-0.017136867,0.006837487
3.488,-0.005289518,-0.00172979,0.075748766,-0.017139518,0.006838828
3.492,-0.005288713,-0.001728147,0.075749938,-0.017140557,0.006841846
3.496,-0.005287774,-0.001728214,0.075749336,-0.017140523,0.006841745
3.5,-0.00528878,-0.001728751,0.075748734,-0.017140725,0.006839901
3.504,-0.00528945,-0.001728918,0.075748898,-0.017142568,0.006838962
3.508,-0.005287941,-0.001729019,0.075749539,-0.017144145,0.006838828
3.512,-0.00528717,-0.001729656,0.075749336,-0.017143037,0.006840069
3.516,-0.005288713,-0.001730595,0.075748867,-0.017140287,0.006840169
3.52,-0.005290624,-0.001733411,0.075747766,-0.017139047,0.006837923
3.524,-0.005292233,-0.001735121,0.075748,-0.017139215,0.006837353
3.528,-0.00529287,-0.001734618,0.075749703,-0.017138713,0.006837789
3.532,-0.005292468,-0.001733411,0.075749906,-0.017137605,0.006838057
3.536,-0.0052922,-0.001734115,0.075749844,-0.017139215,0.006837387
3.54,-0.005293641,-0.001735088,0.075749539,-0.017140221,0.006837286
3.544,-0.005294949,-0.001735121,0.075750477,-0.017140959,0.006838057
3.548,-0.005295049,-0.001734484,0.075752117,-0.017141998,0.0068396
3.552,-0.005294748,-0.001733981,0.075752086,-0.017140623,0.006840605
3.556,-0.005294345,-0.00173378,0.075751852,-0.017140758,0.006839331
3.56,-0.005293474,-0.001733914,0.075752156,-0.017144311,0.006838191
3.564,-0.005292468,-0.001734249,0.07575232,-0.017145451,0.006838158
3.568,-0.005292971,-0.001734618,0.075752289,-0.017143406,0.006838962
3.572,-0.005293574,-0.001733948,0.075751688,-0.017142568,0.006841008
3.576,-0.005293373,-0.001733445,0.075751383,-0.017144748,0.006841343
3.58,-0.005293708,-0.001733042,0.075752594,-0.017148604,0.006841946
3.584,-0.005294647,-0.001732372,0.075753797,-0.017151285,0.006842751
3.588,-0.005294546,-0.001731064,0.075755508,-0.017152459,0.006843589
3.592,-0.005293943,-0.001730226,0.07575618,-0.01715152,0.00684493
3.596,-0.005293206,-0.001730226,0.07575507,-0.017151219,0.006844226
3.6,-0.005293943,-0.001732003,0.075753094,-0.017151285,0.006842047
3.604,-0.005294513,-0.001733948,0.075753227,-0.017151453,0.006842248
3.608,-0.005293138,-0.001733545,0.075753258,-0.01715142,0.006843153
3.612,-0.005293474,-0.001732908,0.075752961,-0.017149977,0.00684436
3.616,-0.005294982,-0.001732942,0.075751984,-0.017149172,0.006843857
3.62,-0.005296391,-0.001732506,0.075751117,-0.017150313,0.006842517
3.624,-0.005295653,-0.001732741,0.075752156,-0.01715058,0.006841075
3.628,-0.005293641,-0.001732707,0.075754398,-0.017150213,0.006841544
3.632,-0.005292132,-0.001732338,0.075754602,-0.017151084,0.006842952
3.636,-0.005291629,-0.001732372,0.075753258,-0.01715085,0.006842583
3.64,-0.005292132,-0.00173378,0.075750984,-0.017151184,0.00684084
3.644,-0.005293474,-0.001735289,0.075750578,-0.017152592,0.006840069
3.648,-0.005294077,-0.001734987,0.075752188,-0.017152961,0.006840773
3.652,-0.005294681,-0.001734249,0.075753125,-0.017151219,0.006842416
3.656,-0.005296759,-0.001733847,0.075752992,-0.017151285,0.00684312
3.66,-0.005298872,-0.001734752,0.075753063,-0.017153195,0.006842181
3.664,-0.005300514,-0.001735423,0.075753828,-0.017153531,0.006842282
3.668,-0.005301688,-0.001734316,0.075754703,-0.01715276,0.006843791
3.672,-0.00530199,-0.001733914,0.07575457,-0.017150145,0.006844092
3.676,-0.0053037,-0.001734652,0.075754,-0.017148604,0.006843086
3.68,-0.00530437,-0.001735222,0.075753727,-0.017150178,0.006841008
3.684,-0.005304169,-0.00173616,0.075753594,-0.017150781,0.006840236
3.688,-0.005303129,-0.001735792,0.075753563,-0.017149775,0.006840471
3.692,-0.005303264,-0.001734685,0.075754234,-0.017149273,0.006841745
3.696,-0.005304336,-0.001734685,0.075754266,-0.017150346,0.00684322
3.7,-0.005305778,-0.00173606,0.075753156,-0.017150748,0.006842852
3.704,-0.005308293,-0.001736999,0.075753898,-0.017148938,0.006842114
3.708,-0.005308829,-0.001737099,0.07575457,-0.017146088,0.006842416
3.712,-0.005308595,-0.001736663,0.075755203,-0.017146223,0.006842751
3.716,-0.005309466,-0.001736026,0.075756477,-0.017148334,0.006841846
3.72,-0.005310841,-0.001736663,0.075756344,-0.017149105,0.006841242
3.724,-0.005311143,-0.001737602,0.075755945,-0.017148066,0.006840605
3.728,-0.005310003,-0.001737133,0.075756516,-0.017149072,0.006841075
3.732,-0.005308293,-0.001736462,0.075756914,-0.01715085,0.006842047
3.736,-0.005308628,-0.001737367,0.075756445,-0.01715058,0.006842248
3.74,-0.005309936,-0.001737703,0.075756242,-0.017150916,0.00684141
3.744,-0.005310908,-0.001738273,0.07575618,-0.017150012,0.006841242
3.748,-0.0053095,-0.00173834,0.075757719,-0.017149775,0.006841108
3.752,-0.00530722,-0.001737535,0.075758695,-0.017149742,0.006839935
3.756,-0.005308024,-0.001737066,0.075758656,-0.01715142,0.006837655
3.76,-0.005309634,-0.001737602,0.075758656,-0.017151787,0.006835811
3.764,-0.005310338,-0.00173777,0.07575993,-0.017151252,0.006835241
3.768,-0.005309165,-0.001736194,0.075760703,-0.017151688,0.006835811
3.772,-0.005307153,-0.001735255,0.0757595,-0.017151688,0.006837219
3.776,-0.005307924,-0.001736898,0.075757453,-0.017150514,0.006837454
3.78,-0.005309567,-0.001738306,0.07575725,-0.017150748,0.006835643
3.784,-0.005309936,-0.001739077,0.075758391,-0.01715209,0.006834906
3.788,-0.005309399,-0.001738742,0.075758859,-0.017152123,0.006836146
3.792,-0.005308997,-0.001736965,0.075760031,-0.017151621,0.006836616
3.796,-0.005308494,-0.001736261,0.07575993,-0.017152426,0.006836716
3.8,-0.005308394,-0.001736429,0.075759164,-0.017153432,0.006834637
3.804,-0.005309567,-0.001736865,0.075760164,-0.01715427,0.006833665
3.808,-0.005309165,-0.001735993,0.075761344,-0.017154437,0.006835643
3.812,-0.005308695,-0.001734886,0.075762516,-0.017154336,0.006836984
3.816,-0.005309466,-0.00173492,0.075762313,-0.017154303,0.006836716
3.82,-0.005311914,-0.001736093,0.075761406,-0.017153096,0.006836146
3.824,-0.005312987,-0.001736697,0.075760805,-0.017152525,0.006835576
3.828,-0.00531235,-0.001735758,0.075760969,-0.017151922,0.006836481
3.832,-0.005311847,-0.001733914,0.075761203,-0.017151586,0.006837923
3.836,-0.005312148,-0.001734048,0.075761375,-0.017150648,0.006837454
3.84,-0.005313858,-0.001735456,0.075761711,-0.017152291,0.006835542
3.844,-0.00531349,-0.001735356,0.075763453,-0.017154873,0.006833296
3.848,-0.005311847,-0.001733914,0.075765633,-0.017156717,0.006833631
3.852,-0.005310841,-0.001733277,0.075765633,-0.01715742,0.00683447
3.856,-0.005311076,-0.00173378,0.075763484,-0.017157152,0.006835274
3.86,-0.005312417,-0.001735389,0.075762211,-0.017157086,0.006835073
3.864,-0.005314462,-0.001736529,0.075762078,-0.017157152,0.006834503
3.868,-0.005316105,-0.001736294,0.07576332,-0.017156717,0.006835241
3.872,-0.005316105,-0.001734853,0.075763891,-0.017156783,0.006835576
3.876,-0.005316272,-0.001734015,0.075763922,-0.017157957,0.006834872
3.88,-0.005315937,-0.001734417,0.075763688,-0.017159834,0.006833498
3.884,-0.005316004,-0.001735121,0.075765461,-0.017161209,0.006832726
3.888,-0.005315132,-0.001734685,0.075767844,-0.01716017,0.006833296
3.892,-0.00531359,-0.001735088,0.075767375,-0.017157621,0.006834235
3.896,-0.005314529,-0.001736764,0.075765836,-0.017156885,0.006834671
3.9,-0.005315703,-0.001738004,0.075765063,-0.017157822,0.006834705
3.904,-0.00531587,-0.001739312,0.0757655,-0.017157855,0.006834705
3.908,-0.005315401,-0.001738943,0.075765633,-0.017157621,0.006834705
3.912,-0.005313523,-0.001737703,0.075765531,-0.017157924,0.006834537
3.916,-0.005312417,-0.001737468,0.075764961,-0.017157957,0.006833799
3.92,-0.005312584,-0.001739044,0.075764625,-0.017156984,0.006832492
3.924,-0.00531302,-0.001739882,0.075764461,-0.017157453,0.006830279
3.928,-0.005312148,-0.001739077,0.075765602,-0.01715866,0.006828871
3.932,-0.005311008,-0.001738675,0.07576707,-0.017158561,0.00682944
3.936,-0.005310271,-0.001738675,0.075767609,-0.017160236,0.006831017
3.94,-0.005311176,-0.001739614,0.075767305,-0.01716235,0.00683162
3.944,-0.005313422,-0.001741055,0.075767344,-0.017162518,0.006831788
3.948,-0.005313993,-0.001740921,0.075768586,-0.017162383,0.006833363
3.952,-0.005314361,-0.001741391,0.07576768,-0.017160203,0.006835073
3.956,-0.005316507,-0.001742329,0.075766703,-0.017158092,0.006835107
3.96,-0.005317077,-0.001743268,0.075766102,-0.017159902,0.006834537
3.964,-0.005316675,-0.001744274,0.075766336,-0.017161109,0.006835208
3.968,-0.005316574,-0.001743469,0.075767914,-0.017160639,0.006836045
3.972,-0.005316339,-0.001742095,0.07576882,-0.017159432,0.006835576
3.976,-0.005317613,-0.001742363,0.07576882,-0.017158225,0.006834067
3.98,-0.005319894,-0.001743872,0.07576875,-0.017157555,0.006832056
3.984,-0.005321167,-0.001744576,0.075769484,-0.017158729,0.006832525
3.988,-0.005320899,-0.00174414,0.075770258,-0.017160471,0.006833866
3.992,-0.005320463,-0.001743905,0.075770859,-0.017161109,0.006835241
3.996,-0.005321167,-0.001744844,0.075769688,-0.017159398,0.006834805
4,-0.005322073,-0.001747191,0.075768281,-0.017158125,0.006833598
4.004,-0.005323212,-0.001748499,0.075767273,-0.017157621,0.006833296
4.008,-0.005324084,-0.001747962,0.075768047,-0.017156213,0.006834067
4.012,-0.005323548,-0.001747023,0.075768484,-0.017156213,0.006834335
4.016,-0.005322676,-0.001746923,0.075768445,-0.017158258,0.006833833
4.02,-0.00532281,-0.001747996,0.075767344,-0.017160975,0.006832424
4.024,-0.005322106,-0.001747962,0.075767844,-0.017162182,0.006830078
4.028,-0.005321402,-0.001746085,0.075769656,-0.017161008,0.006829876
4.032,-0.005320966,-0.001745112,0.075770664,-0.017158258,0.006830882
4.036,-0.00532224,-0.001746319,0.075770766,-0.017156281,0.006829876
4.04,-0.005323447,-0.00174699,0.075770859,-0.017158191,0.006830011
4.044,-0.005324151,-0.001747325,0.075771266,-0.01716141,0.006830983
4.048,-0.005323749,-0.00174709,0.075774547,-0.017164965,0.006832961
4.052,-0.005322408,-0.001745749,0.075776023,-0.017167848,0.006835409
4.056,-0.005322173,-0.001746051,0.075775055,-0.017168184,0.006835308
4.06,-0.005322643,-0.00174699,0.07577425,-0.017169625,0.006833196
4.064,-0.005322643,-0.001747023,0.075774516,-0.017171703,0.006831788
4.068,-0.005322073,-0.001746856,0.075774719,-0.017170496,0.00683286
4.072,-0.005321872,-0.001746655,0.075774219,-0.017168451,0.006833397
4.076,-0.005323212,-0.001747191,0.075774547,-0.017168016,0.006832089
4.08,-0.005324688,-0.001748834,0.07577418,-0.017166977,0.006829943
4.084,-0.00532499,-0.001749437,0.075774547,-0.017167043,0.006828535
4.088,-0.005323715,-0.001748197,0.075775789,-0.01716825,0.006828603
4.092,-0.005322375,-0.001747191,0.075775523,-0.017168518,0.006829172
4.096,-0.005322106,-0.001748063,0.075775688,-0.017168082,0.006829105
4.1,-0.00532499,-0.001748834,0.075774883,-0.017167344,0.00682877
4.104,-0.005325895,-0.001748834,0.075774922,-0.017167277,0.006828703
4.108,-0.005324017,-0.001748934,0.075774719,-0.017168518,0.006830212
4.112,-0.005321804,-0.00174937,0.075774984,-0.017171367,0.006831955
4.116,-0.005320463,-0.00175098,0.075774617,-0.017172373,0.006830882
4.12,-0.00532167,-0.001752187,0.075774453,-0.017172307,0.006829273
4.124,-0.00532338,-0.001751348,0.075775961,-0.017172977,0.0068281
4.128,-0.005325425,-0.001749773,0.075778539,-0.017171971,0.006828535
4.132,-0.005324587,-0.001749102,0.075778945,-0.017169557,0.006828837
4.136,-0.005323548,-0.001750778,0.075776695,-0.017167613,0.006827429
4.14,-0.005324319,-0.001752991,0.07577475,-0.017166037,0.006825686
4.144,-0.005325928,-0.001754701,0.075773914,-0.01716483,0.00682468
4.148,-0.005326096,-0.001754466,0.075774078,-0.017163455,0.006825518
4.152,-0.005325191,-0.00175279,0.075774453,-0.017163422,0.006827194
4.156,-0.005323146,-0.001752086,0.075773844,-0.017163891,0.006826826
4.16,-0.005324386,-0.001752924,0.075772875,-0.0171655,0.006827127
4.164,-0.005327303,-0.001753896,0.075773711,-0.017165902,0.006827496
4.168,-0.005325358,-0.001753327,0.075774219,-0.017165031,0.006827194
4.172,-0.005324621,-0.001752287,0.075774719,-0.017165031,0.006827898
4.176,-0.005324956,-0.001752019,0.075774617,-0.017165971,0.006827664
4.18,-0.005325694,-0.001752052,0.075774281,-0.017166338,0.006826155
4.184,-0.005325727,-0.001751784,0.075775219,-0.017167211,0.00682582
4.188,-0.00532452,-0.001751516,0.075776297,-0.01716768,0.006827127
4.192,-0.005322274,-0.001751952,0.07577643,-0.017167881,0.006827295
4.196,-0.005321737,-0.00175279,0.075775961,-0.017169625,0.006826591
4.2,-0.005323917,-0.001753628,0.075776156,-0.017170396,0.006826188
4.204,-0.005325794,-0.001753829,0.075777531,-0.017171402,0.006826188
4.208,-0.005323414,-0.001752555,0.07577857,-0.01717348,0.006827898
4.212,-0.005321033,-0.001751348,0.075778609,-0.017173748,0.006828301
4.216,-0.005320799,-0.001751684,0.075778305,-0.017173781,0.006827664
4.22,-0.005321302,-0.001752555,0.075777906,-0.017173313,0.006825853
4.224,-0.005322073,-0.00175336,0.075777633,-0.017172709,0.006823841
4.228,-0.005321234,-0.001753997,0.075777805,-0.017171971,0.006824445
4.232,-0.005320363,-0.001753494,0.075777367,-0.017171703,0.00682592
4.236,-0.00532281,-0.001753829,0.075777633,-0.017173715,0.006827094
4.24,-0.005325727,-0.001755707,0.075777469,-0.017174553,0.006828703
4.244,-0.005326197,-0.001757752,0.075777531,-0.017173816,0.006829139
4.248,-0.0053267,-0.001758523,0.075777766,-0.017173246,0.006829273
4.252,-0.005327102,-0.001758456,0.075777805,-0.017173682,0.006831385
4.256,-0.005327571,-0.001758724,0.075776664,-0.01717415,0.006832894
4.26,-0.005328477,-0.001759429,0.075775555,-0.017175928,0.006833397
4.264,-0.005327169,-0.00175973,0.075775961,-0.017178912,0.006833397
4.268,-0.005324554,-0.001758825,0.075776391,-0.017180555,0.006834771
4.272,-0.005323146,-0.001758087,0.075776391,-0.017181293,0.006835912
4.276,-0.005322408,-0.001760334,0.075774617,-0.017181459,0.006837353
4.28,-0.005323414,-0.001763016,0.075773711,-0.017182299,0.00683856
4.284,-0.005324721,-0.001764357,0.075773609,-0.017183941,0.006839901
4.288,-0.005325928,-0.001763519,0.075774016,-0.017183773,0.006841108
4.292,-0.005325358,-0.001762982,0.075773781,-0.017182164,0.006841745
4.296,-0.005325962,-0.001764055,0.075772938,-0.017181092,0.006841511
4.3,-0.005328778,-0.00176543,0.075771836,-0.017179549,0.006839164
4.304,-0.005328912,-0.001766033,0.075772133,-0.017179816,0.006837722
4.308,-0.005327236,-0.001765698,0.075773141,-0.017180186,0.006837822
4.312,-0.005325157,-0.001764793,0.075772938,-0.017180756,0.006838393
4.316,-0.00532499,-0.001765665,0.075771531,-0.017179146,0.006837085
4.32,-0.0053269,-0.001767542,0.075770156,-0.017178074,0.006834436
4.324,-0.005327739,-0.001768179,0.075769156,-0.017179113,0.00683286
4.328,-0.005327001,-0.00176828,0.075768914,-0.017179783,0.00683343
4.332,-0.005326331,-0.001767777,0.075769422,-0.017180621,0.006834403
4.336,-0.005327638,-0.001767877,0.075769688,-0.017181594,0.006834872
4.34,-0.005329281,-0.001769118,0.075769016,-0.017181426,0.006833699
4.344,-0.005330086,-0.00176952,0.075769422,-0.017180287,0.006831687
4.348,-0.005329549,-0.001768984,0.075770492,-0.017178945,0.006831788
4.352,-0.005328577,-0.001768481,0.075770328,-0.01717757,0.006832659
4.356,-0.005330119,-0.001769286,0.075769625,-0.017176195,0.006832625
4.36,-0.00533203,-0.001770962,0.07576868,-0.017175559,0.006831955
4.364,-0.005333372,-0.001771398,0.075768281,-0.01717633,0.006832056
4.368,-0.005332902,-0.001769722,0.07576882,-0.017178543,0.006835409
4.372,-0.005331863,-0.001768045,0.075770195,-0.017179615,0.006836783
4.376,-0.005331829,-0.001767274,0.075770695,-0.017180689,0.006835241
4.38,-0.005332701,-0.001767542,0.075770258,-0.017183035,0.006834906
4.384,-0.005333438,-0.001768179,0.075771602,-0.017183941,0.006834738
4.388,-0.005332064,-0.001767341,0.075772133,-0.017183203,0.006834168
4.392,-0.005330253,-0.001766402,0.075771734,-0.017183338,0.006834302
4.396,-0.005330253,-0.001766033,0.07577157,-0.017184914,0.006834637
4.4,-0.005330086,-0.001765061,0.075772438,-0.017189271,0.006835241
4.404,-0.005330991,-0.001765464,0.075772773,-0.017190412,0.006836448
4.408,-0.005332064,-0.001766402,0.075773273,-0.017187461,0.00683799
4.412,-0.005332801,-0.001766101,0.075772539,-0.017185383,0.006839834
4.416,-0.005334008,-0.001766536,0.075770625,-0.017184443,0.006840002
4.42,-0.00533478,-0.001767207,0.075770023,-0.017185449,0.00683856
4.424,-0.005335752,-0.00176724,0.07576982,-0.017186455,0.006838393
4.428,-0.00533535,-0.001766101,0.075771766,-0.0171884,0.006839767
4.432,-0.005333707,-0.001765396,0.075773547,-0.017189674,0.006841343
4.436,-0.00533478,-0.001765296,0.075774883,-0.017191619,0.006841678
4.44,-0.005335987,-0.001766101,0.075774586,-0.01719343,0.006841779
4.444,-0.00533706,-0.001767073,0.075774383,-0.017194166,0.006841846
4.448,-0.005335953,-0.001767475,0.075774281,-0.017193764,0.006841779
4.452,-0.005335148,-0.001767274,0.075774719,-0.017193094,0.006842449
4.456,-0.005334277,-0.001767777,0.075773781,-0.017193229,0.006841611
4.46,-0.00533488,-0.001768112,0.075772977,-0.017194904,0.006840337
4.464,-0.00533706,-0.001767375,0.075774852,-0.017196949,0.006840437
4.468,-0.005338971,-0.001765866,0.075776898,-0.017196715,0.006842416
4.472,-0.005336389,-0.001765128,0.075776531,-0.017197285,0.006842885
4.476,-0.005335316,-0.001765464,0.075775656,-0.017197219,0.006840404
4.48,-0.00533545,-0.001766905,0.075774352,-0.017196045,0.006836817
4.484,-0.005334646,-0.001768213,0.075774016,-0.01719467,0.006834805
4.488,-0.005333472,-0.001767643,0.075774516,-0.017195373,0.006835945
4.492,-0.005331829,-0.001767509,0.075773945,-0.017195676,0.006836381
4.496,-0.005332466,-0.001767911,0.075772336,-0.017196246,0.006835073
4.5,-0.005334444,-0.001769789,0.07577157,-0.017195172,0.006834134
4.504,-0.005336657,-0.00177056,0.075772273,-0.017195072,0.006834235
4.508,-0.005338568,-0.001769319,0.075774781,-0.017195811,0.00683675
4.512,-0.005340412,-0.001767609,0.075775688,-0.017195307,0.006839331
4.516,-0.005339742,-0.001767576,0.075774688,-0.017196111,0.006839063
4.52,-0.005339977,-0.001768615,0.075773711,-0.017196346,0.006836917
4.524,-0.005340848,-0.001769219,0.075773477,-0.017195977,0.006835744
4.528,-0.005339909,-0.001767509,0.075775117,-0.017198592,0.006837755
4.532,-0.005338367,-0.001766268,0.075775656,-0.017201777,0.006840002
4.536,-0.005338635,-0.001767106,0.075774852,-0.017201912,0.006840035
4.54,-0.005339339,-0.001769051,0.075773039,-0.01720218,0.006838761
4.544,-0.005338669,-0.001770526,0.075772609,-0.017203924,0.006837621
4.548,-0.005338166,-0.001769319,0.075774016,-0.01720399,0.006838661
4.552,-0.00533773,-0.001767542,0.075775117,-0.017203924,0.006839432
4.556,-0.005338501,-0.001767307,0.075774648,-0.017203654,0.006839465
4.56,-0.005339909,-0.001768582,0.075774281,-0.017203354,0.006838325
4.564,-0.00534182,-0.001770928,0.075774383,-0.017202314,0.006837755
4.568,-0.005341787,-0.001771197,0.075774719,-0.017200906,0.006838225
4.572,-0.005340915,-0.001770828,0.075773781,-0.017200234,0.00683742
4.576,-0.005340681,-0.001771633,0.075772508,-0.01720057,0.006836213
4.58,-0.005342357,-0.001772504,0.0757715,-0.017201408,0.006835375
4.584,-0.005342625,-0.00177294,0.075771,-0.017201141,0.006834503
4.588,-0.005342323,-0.001773074,0.075770695,-0.01720124,0.006835073
4.592,-0.00534353,-0.001773778,0.075770695,-0.017201207,0.006837822
4.596,-0.005344603,-0.001774415,0.075769523,-0.017201844,0.006837722
4.6,-0.005345944,-0.001774717,0.075770125,-0.01720332,0.006836213
4.604,-0.005348057,-0.00177512,0.075772273,-0.017203252,0.006835509
4.608,-0.005347621,-0.001774181,0.075773078,-0.017202146,0.006835308
4.612,-0.005346011,-0.001772974,0.075772508,-0.017200973,0.006835208
4.616,-0.005347118,-0.001772806,0.075771703,-0.017201711,0.006835006
4.62,-0.005347185,-0.001773644,0.075772,-0.017203521,0.006833464
4.624,-0.005347319,-0.001774684,0.075771938,-0.01720208,0.006832291
4.628,-0.005346682,-0.001774147,0.075772773,-0.017200168,0.006831721
4.632,-0.005346514,-0.001773711,0.07577257,-0.017199129,0.006831754
4.636,-0.005348124,-0.001774482,0.075770461,-0.017198928,0.006831821
4.64,-0.005348828,-0.001775589,0.075769688,-0.017200102,0.006830715
4.644,-0.005348325,-0.001776226,0.075769922,-0.017200504,0.006830111
4.648,-0.005347051,-0.001775455,0.075771195,-0.017199699,0.00683105
4.652,-0.005345542,-0.001774516,0.075772039,-0.017198258,0.006830581
4.656,-0.005344436,-0.001774415,0.075772672,-0.017200234,0.006829608
4.66,-0.005345777,-0.001774851,0.075772039,-0.017201006,0.00682877
4.664,-0.005347688,-0.001775924,0.075771602,-0.017199297,0.006828669
4.668,-0.005347855,-0.00177636,0.075772438,-0.017197955,0.006829709
4.672,-0.005348023,-0.001776159,0.075772,-0.017197285,0.006830547
4.676,-0.005348962,-0.00177817,0.075770359,-0.01719477,0.006830212
4.68,-0.005351342,-0.001780383,0.075769688,-0.017193598,0.006829273
4.684,-0.005352147,-0.001781523,0.07577093,-0.017193127,0.006828334
4.688,-0.00535161,-0.001780618,0.075771867,-0.017193496,0.006828871
4.692,-0.005350873,-0.001779176,0.075773008,-0.017194736,0.006830279
4.696,-0.005351376,-0.001778204,0.075772875,-0.017194805,0.006829843
4.7,-0.005352214,-0.001778506,0.075772539,-0.017195977,0.006828334
4.704,-0.005352382,-0.001778573,0.075772906,-0.017196447,0.006826423
4.708,-0.005351007,-0.001777098,0.075773742,-0.017196178,0.00682649
4.712,-0.005349532,-0.001775187,0.075774047,-0.017197117,0.006827462
4.716,-0.005349196,-0.001775388,0.075773375,-0.017198223,0.006827194
4.72,-0.005350135,-0.0017776,0.075771938,-0.017198895,0.006826188
4.724,-0.005350571,-0.001778707,0.075771094,-0.017197219,0.006825384
4.728,-0.005351141,-0.001779176,0.075772844,-0.017196514,0.006825987
4.732,-0.005351543,-0.001779009,0.07577418,-0.017196615,0.006826926
4.736,-0.005352314,-0.001779176,0.075774414,-0.017197051,0.006826524
4.74,-0.005353153,-0.001779813,0.075774781,-0.017196816,0.006825954
4.744,-0.005354427,-0.00178035,0.075775289,-0.017196246,0.006826524
4.748,-0.00535389,-0.001780216,0.075776023,-0.01719648,0.006828569
4.752,-0.005351912,-0.001779947,0.075773945,-0.01719648,0.006830145
4.756,-0.005352549,-0.001781523,0.075772234,-0.017196715,0.00682991
4.76,-0.005354795,-0.001783703,0.075771836,-0.017197787,0.006828703
4.764,-0.005356103,-0.001783971,0.075772375,-0.017198223,0.006827664
4.768,-0.005355332,-0.001784038,0.07577257,-0.017198895,0.006828502
4.772,-0.005355231,-0.001783535,0.075772203,-0.017198693,0.006830413
4.776,-0.005355835,-0.001783602,0.075772133,-0.017199396,0.006830011
4.78,-0.00535674,-0.001784541,0.075772234,-0.017200906,0.006829307
4.784,-0.005356774,-0.001784977,0.075773078,-0.017202648,0.006827865
4.788,-0.005354594,-0.001783803,0.07577418,-0.017202885,0.006828368
4.792,-0.005352314,-0.001781792,0.075775391,-0.017203387,0.006829005
4.796,-0.005352549,-0.00178216,0.075775289,-0.017202717,0.006828703
4.8,-0.005355869,-0.001783367,0.07577418,-0.017201777,0.006828871
4.804,-0.00535607,-0.001783937,0.075774117,-0.017201141,0.006828267
4.808,-0.005354527,-0.001783904,0.075774617,-0.017201477,0.006828535
4.812,-0.005352583,-0.001782227,0.075775789,-0.01720332,0.006828871
4.816,-0.005351912,-0.001781624,0.075775117,-0.017203689,0.006827328
4.82,-0.005353153,-0.00178263,0.075774984,-0.017205299,0.006826323
4.824,-0.005354628,-0.001782965,0.075777367,-0.017206807,0.006826826
4.828,-0.005354292,-0.0017833,0.075777195,-0.017205197,0.006826691
4.832,-0.005355466,-0.00178377,0.075776227,-0.017201711,0.00682592
4.836,-0.00535664,-0.001785211,0.075774719,-0.017199666,0.006824915
4.84,-0.005360328,-0.00178729,0.075773273,-0.017198057,0.006823774
4.844,-0.005365189,-0.001787793,0.075774117,-0.017197385,0.006824512
4.848,-0.00536529,-0.001787592,0.07577418,-0.01719685,0.00682649
4.852,-0.005364217,-0.001787156,0.075775258,-0.017198625,0.006828703
4.856,-0.005364653,-0.001787759,0.075774453,-0.017198057,0.006827563
4.86,-0.005366832,-0.001788195,0.075774586,-0.017197855,0.006826524
4.864,-0.005366765,-0.001788732,0.075775352,-0.017197117,0.006825451
4.868,-0.005365021,-0.001789469,0.07577482,-0.017197018,0.006825417
4.872,-0.005363814,-0.001789167,0.075774586,-0.017198559,0.006826155
4.876,-0.005363479,-0.001788028,0.075774719,-0.017200906,0.00682582
4.88,-0.005363446,-0.001788899,0.075773945,-0.017201275,0.006824143
4.884,-0.005364519,-0.001790006,0.075774352,-0.01720208,0.006823338
4.888,-0.005364284,-0.0017891,0.075775188,-0.01720275,0.00682364
4.892,-0.005362675,-0.001787458,0.075774219,-0.017202113,0.006822534
4.896,-0.005362071,-0.001787022,0.07577318,-0.017201879,0.006822131
4.9,-0.005362306,-0.001787994,0.075772938,-0.01720275,0.006821025
4.904,-0.00536177,-0.001788464,0.075773711,-0.01720342,0.00681955
4.908,-0.005360965,-0.001787893,0.075773648,-0.017202648,0.006820489
4.912,-0.005360629,-0.001787893,0.075773078,-0.017201711,0.006821327
4.916,-0.005361635,-0.001788665,0.075772102,-0.017199598,0.006820455
4.92,-0.005363881,-0.001789436,0.075772539,-0.017199598,0.006818712
4.924,-0.005363211,-0.001788832,0.075774547,-0.017202045,0.006819282
4.928,-0.005361199,-0.001787927,0.075775727,-0.01720342,0.006821327
4.932,-0.005360529,-0.001786083,0.075775859,-0.017204225,0.006822333
4.936,-0.005359959,-0.001785412,0.075775117,-0.017204426,0.006821227
4.94,-0.005360931,-0.00178672,0.075773039,-0.017201643,0.006818343
4.944,-0.005362775,-0.001788799,0.075772938,-0.017197285,0.006816968
4.948,-0.005362507,-0.001789235,0.075773813,-0.017196379,0.006818544
4.952,-0.005362406,-0.001788832,0.075774719,-0.017197285,0.006821461
4.956,-0.005363043,-0.001788765,0.075774883,-0.017199195,0.006822567
4.96,-0.005363278,-0.001789,0.075774852,-0.017201811,0.00682136
4.964,-0.005363479,-0.001787893,0.07577693,-0.01720332,0.006820791
4.968,-0.005362038,-0.001787156,0.075777734,-0.017202816,0.006821796
4.972,-0.005360193,-0.001786217,0.075777469,-0.017202684,0.006821495
4.976,-0.005360529,-0.001787022,0.075776297,-0.017202783,0.006819684
4.98,-0.005361602,-0.001788329,0.075776898,-0.017205299,0.006818946
4.984,-0.005362306,-0.001789,0.075777906,-0.017205936,0.00681898
4.988,-0.0053613,-0.001789436,0.075779078,-0.017205365,0.006820221
4.992,-0.005360294,-0.001789167,0.075780383,-0.017205164,0.006820958
4.996,-0.00536073,-0.001788665,0.075780922,-0.017206137,0.00682012
5,-0.005360663,-0.001789,0.07578032,-0.017207074,0.006818846
5.004,-0.005360596,-0.001788665,0.07578082,-0.01720741,0.006817002
5.008,-0.005360361,-0.001787323,0.075781656,-0.01720808,0.006816733
5.012,-0.005359825,-0.001786083,0.075782398,-0.017208482,0.006818578
5.016,-0.005360764,-0.00178672,0.075780953,-0.01720674,0.006818075
5.02,-0.005362909,-0.001788128,0.075780117,-0.017206104,0.006817002
5.024,-0.005364552,-0.001788665,0.075780789,-0.01720466,0.006815795
5.028,-0.00536529,-0.001787826,0.075781422,-0.017204158,0.006817807
5.032,-0.005364854,-0.001786754,0.075781891,-0.017204762,0.006819282
5.036,-0.005365323,-0.001786385,0.07578075,-0.017206068,0.00681898
5.04,-0.005367167,-0.001787424,0.075780383,-0.017207074,0.006818611
5.044,-0.005368508,-0.001787391,0.075781891,-0.01720627,0.006817304
5.048,-0.005368475,-0.001787491,0.075782195,-0.017202582,0.00681727
5.052,-0.005367335,-0.001787893,0.075781961,-0.017200873,0.006817136
5.056,-0.005366363,-0.001788598,0.075781594,-0.017202146,0.006816801
5.06,-0.005366027,-0.001789,0.075781422,-0.017203891,0.006815024
5.064,-0.005367167,-0.001790106,0.075782266,-0.017204828,0.00681442
5.068,-0.005369715,-0.001789503,0.075783398,-0.0172055,0.006815459
5.072,-0.005367804,-0.001789402,0.07578293,-0.017204459,0.006815761
5.076,-0.005368173,-0.001791012,0.075782266,-0.017202414,0.006815795
5.08,-0.005370989,-0.001792654,0.075782227,-0.017201408,0.006814588
5.084,-0.005372364,-0.001793392,0.075782359,-0.017201912,0.006813582
5.088,-0.005372096,-0.001792219,0.075782797,-0.017201039,0.006814252
5.092,-0.005372599,-0.001791615,0.075782797,-0.017200234,0.006815527
5.096,-0.005374208,-0.00179185,0.075782734,-0.017200201,0.006816097
5.1,-0.005374812,-0.001792453,0.075782063,-0.017200201,0.006815024
5.104,-0.005374946,-0.001793493,0.075781656,-0.017198928,0.006814622
5.108,-0.005373202,-0.00179299,0.075781391,-0.01719809,0.006815728
5.112,-0.00537166,-0.001791615,0.075780484,-0.017198895,0.006816868
5.116,-0.005372063,-0.001792017,0.075779711,-0.017199531,0.006817505
5.12,-0.005372833,-0.001792453,0.075780047,-0.017199799,0.006816935
5.124,-0.005371425,-0.001791682,0.07578082,-0.017201207,0.006815125
5.128,-0.005368911,-0.001790408,0.075782164,-0.017201711,0.006815191
5.132,-0.005368743,-0.001789469,0.075782531,-0.017200436,0.006815661
5.136,-0.005369749,-0.001790106,0.075781828,-0.017199564,0.006814085
5.14,-0.005371425,-0.001792118,0.075781219,-0.01719876,0.006813415
5.144,-0.005372364,-0.001792788,0.075781391,-0.017198123,0.006812643
5.148,-0.005372431,-0.001792822,0.075782328,-0.017198625,0.006813783
5.152,-0.005372331,-0.001792185,0.075782266,-0.017197318,0.006815225
5.156,-0.005374342,-0.001791749,0.075781727,-0.017196379,0.006815091
5.16,-0.005376019,-0.00179185,0.075781461,-0.017198928,0.006814085
5.164,-0.005376085,-0.001790743,0.07578293,-0.017201477,0.00681489
5.168,-0.005374107,-0.001790408,0.075784508,-0.017202951,0.006816432
5.172,-0.005373035,-0.001789939,0.075784977,-0.017203488,0.00681831
5.176,-0.005374778,-0.001791146,0.075783164,-0.017201945,0.00681831
5.18,-0.005376958,-0.001793627,0.075781758,-0.017200873,0.0068167
5.184,-0.005378298,-0.00179527,0.075781828,-0.017199799,0.006816231
5.188,-0.005377795,-0.001795974,0.075782328,-0.017198592,0.006817538
5.192,-0.005376991,-0.001796644,0.075781656,-0.017197352,0.006818175
5.196,-0.005376958,-0.001797549,0.07578018,-0.017197654,0.006818041
5.2,-0.005376153,-0.001798287,0.07577857,-0.017199799,0.006817002
5.204,-0.005375449,-0.001797818,0.075778609,-0.01720124,0.006816231
5.208,-0.005374309,-0.001795638,0.075779375,-0.017202648,0.006816097
5.212,-0.005373739,-0.001793861,0.075780617,-0.017203654,0.006816801
5.216,-0.005375214,-0.001793861,0.075780219,-0.01720493,0.006816767
5.22,-0.005375683,-0.00179537,0.075778641,-0.017205734,0.006816164
5.224,-0.005375415,-0.001795772,0.075778141,-0.017205332,0.006815962
5.228,-0.005375549,-0.001795605,0.075778906,-0.017205432,0.006818376
5.232,-0.005375583,-0.00179537,0.075779648,-0.017206572,0.006820724
5.236,-0.005376455,-0.001795974,0.075778773,-0.017208316,0.006822299
5.24,-0.00537793,-0.001797114,0.075777031,-0.017210527,0.006823205
5.244,-0.005378634,-0.001798119,0.075776461,-0.017212338,0.006824412
5.248,-0.005377292,-0.001798052,0.075777102,-0.017213311,0.006827396
5.252,-0.00537746,-0.001797348,0.075777469,-0.017213109,0.006830145
5.256,-0.005381148,-0.001797449,0.07577807,-0.017213277,0.00683152
5.26,-0.005381215,-0.001798689,0.075777195,-0.017214551,0.006830212
5.264,-0.005380646,-0.001800902,0.07577693,-0.017215625,0.006829876
5.268,-0.005381417,-0.001801305,0.075778141,-0.017217133,0.006832056
5.272,-0.005380411,-0.001801472,0.075777297,-0.0172171,0.006833397
5.276,-0.005380779,-0.00180231,0.075775453,-0.017216027,0.006832492
5.28,-0.005382154,-0.001803719,0.075773344,-0.017215055,0.006830949
5.284,-0.005383696,-0.001804758,0.075772336,-0.017212539,0.006829608
5.288,-0.005383562,-0.001804993,0.075772938,-0.017210193,0.006828535
5.292,-0.005383998,-0.001804758,0.075772672,-0.017208215,0.0068281
5.296,-0.00538487,-0.001805026,0.075771531,-0.017208752,0.006827999
5.3,-0.005385708,-0.001805428,0.075770828,-0.017210025,0.006827764
5.304,-0.005387016,-0.001805663,0.07577143,-0.01721026,0.006826457
5.308,-0.005386245,-0.001806099,0.075771938,-0.017208818,0.006826323
5.312,-0.005385742,-0.001806032,0.075771633,-0.017207443,0.006826289
5.316,-0.00538658,-0.001806602,0.075770195,-0.017205332,0.006824378
5.32,-0.005387921,-0.001807608,0.075768516,-0.017204896,0.006822199
5.324,-0.005389329,-0.001807507,0.075767945,-0.017204729,0.00682126
5.328,-0.005390603,-0.001807339,0.075767914,-0.017201744,0.006821394
5.332,-0.005391173,-0.00180744,0.075767812,-0.017199396,0.006821126
5.336,-0.005392983,-0.001806703,0.075768352,-0.017199195,0.00682002
5.34,-0.005394761,-0.001805998,0.07576882,-0.017200705,0.006819181
5.344,-0.005396068,-0.001805194,0.075769156,-0.017200637,0.006819081
5.348,-0.005395833,-0.001805026,0.075769117,-0.017200637,0.006820656
5.352,-0.005394325,-0.001804758,0.075768914,-0.017201777,0.006822165
5.356,-0.005393017,-0.001804389,0.075767945,-0.017204426,0.006821964
5.36,-0.005393285,-0.001804926,0.075767305,-0.017205566,0.006821092
5.364,-0.00539352,-0.001805361,0.07576818,-0.017205197,0.006820992
5.368,-0.005393051,-0.001805395,0.075768984,-0.017204594,0.006822467
5.372,-0.00539466,-0.001804557,0.075769656,-0.017203555,0.006824143
5.376,-0.005395833,-0.00180516,0.075768953,-0.017202984,0.006823841
5.38,-0.00539751,-0.0018063,0.075768953,-0.017203891,0.006822299
5.384,-0.005397778,-0.001806233,0.075769484,-0.017205398,0.006821897
5.388,-0.005395934,-0.001805495,0.075770023,-0.017207242,0.006821897
5.392,-0.005394794,-0.001803719,0.075770258,-0.017209119,0.006822668
5.396,-0.005396705,-0.001803182,0.07577043,-0.017211367,0.006823506
5.4,-0.005398314,-0.001804188,0.075770195,-0.017212406,0.006823305
5.404,-0.00539647,-0.001806065,0.075769992,-0.017211936,0.00682183
5.408,-0.005392983,-0.001804993,0.075771766,-0.017212607,0.006820455
5.412,-0.005393621,-0.001802914,0.075773813,-0.017213211,0.006821628
5.416,-0.005395532,-0.001802746,0.075773008,-0.017213781,0.006823037
5.42,-0.005397309,-0.001803517,0.075772641,-0.017214719,0.006822735
5.424,-0.005398683,-0.001803853,0.075773344,-0.017214418,0.006823406
5.428,-0.005398817,-0.001804691,0.075772844,-0.017212674,0.006824814
5.432,-0.005400024,-0.001805764,0.075771367,-0.017209557,0.006825987
5.436,-0.005400896,-0.001807339,0.075768984,-0.017207344,0.006824378
5.44,-0.005402036,-0.001808513,0.075767344,-0.017207914,0.0068224
5.444,-0.005402539,-0.001808882,0.075767305,-0.01720902,0.00682183
5.448,-0.005402505,-0.001807138,0.07576882,-0.017210428,0.006823171
5.452,-0.005402673,-0.001806032,0.075768984,-0.017210695,0.006824646
5.456,-0.005404986,-0.001806971,0.075768016,-0.017209656,0.006823406
5.46,-0.005405825,-0.001808178,0.075766836,-0.017209924,0.006821897
5.464,-0.005406629,-0.001808178,0.075766805,-0.017210629,0.006821729
5.468,-0.005405355,-0.001807339,0.075767477,-0.017211467,0.006822232
5.472,-0.005403478,-0.001807004,0.075767508,-0.017211602,0.006822567
5.476,-0.005404048,-0.001807507,0.075766602,-0.017209824,0.006820724
5.48,-0.005405288,-0.001808379,0.075766,-0.017208953,0.006818544
5.484,-0.00540502,-0.001808815,0.0757665,-0.017209355,0.006816767
5.488,-0.005406126,-0.001808211,0.075768109,-0.017207678,0.006817538
5.492,-0.005408742,-0.001807675,0.075769016,-0.017205666,0.006819114
5.496,-0.005409043,-0.001807708,0.075768078,-0.017206137,0.006819114
5.5,-0.005408272,-0.001809049,0.075765836,-0.017208248,0.006817304
5.504,-0.005406596,-0.001810994,0.075764625,-0.017210125,0.006815527
5.508,-0.005404853,-0.001810759,0.075765031,-0.017210494,0.006814823
5.512,-0.005403746,-0.001809217,0.075766836,-0.017210494,0.006814755
5.516,-0.005403511,-0.001809955,0.075766773,-0.01721083,0.006813582
5.52,-0.005403813,-0.001811564,0.075765633,-0.017211668,0.006809659
5.524,-0.005404584,-0.001812134,0.075765664,-0.017211869,0.006807882
5.528,-0.005403847,-0.001810692,0.075767141,-0.017212338,0.006808285
5.532,-0.00540388,-0.001809385,0.075767242,-0.017212406,0.006808486
5.536,-0.005405858,-0.001808848,0.075766773,-0.017212574,0.006807949
5.54,-0.005407568,-0.001809686,0.075766133,-0.017212775,0.00680815
5.544,-0.005408104,-0.001810793,0.075765563,-0.017212406,0.006808653
5.548,-0.005407702,-0.001809854,0.075766977,-0.017212607,0.006810967
5.552,-0.0054073,-0.001808245,0.075767172,-0.017213277,0.006812073
5.556,-0.005407702,-0.001808379,0.075765898,-0.017213043,0.006811067
5.56,-0.005408239,-0.001810223,0.075765297,-0.017212641,0.006808821
5.564,-0.005408138,-0.001811061,0.075765328,-0.01721482,0.006807647
5.568,-0.0054073,-0.001810391,0.075766406,-0.017216832,0.006808922
5.572,-0.005405892,-0.001808882,0.075766406,-0.017217971,0.006810162
5.576,-0.005406026,-0.001809619,0.075764258,-0.017218172,0.006808821
5.58,-0.005406897,-0.001810424,0.075762781,-0.017217133,0.00680644
5.584,-0.005408339,-0.001810592,0.075762648,-0.017215424,0.006805703
5.588,-0.00540797,-0.001810458,0.075762484,-0.017215391,0.006807916
5.592,-0.005407903,-0.001810525,0.075761773,-0.017214887,0.006809391
5.596,-0.005410351,-0.001811765,0.0757605,-0.017213244,0.006808854
5.6,-0.005412295,-0.001812972,0.075760438,-0.017212373,0.006808218
5.604,-0.00541243,-0.001813944,0.075759969,-0.017211836,0.006808385
5.608,-0.005411323,-0.00181324,0.075760031,-0.017212539,0.006808486
5.612,-0.005409881,-0.001812067,0.075761305,-0.017214619,0.006807782
5.616,-0.005409647,-0.001811363,0.075761641,-0.017215826,0.006806541
5.62,-0.005410887,-0.001811195,0.075761813,-0.017216865,0.006805234
5.624,-0.005411156,-0.001811028,0.075762648,-0.017218475,0.006804429
5.628,-0.005411491,-0.001810323,0.075764023,-0.017220217,0.006806675
5.632,-0.005411726,-0.001809485,0.075764656,-0.017221994,0.006809156
5.636,-0.005413066,-0.001809284,0.075764125,-0.017223102,0.00680976
5.64,-0.005413804,-0.001809854,0.075764289,-0.017225113,0.006809928
5.644,-0.005413838,-0.001811028,0.075764727,-0.017225582,0.006808754
5.648,-0.005412731,-0.001811329,0.075764563,-0.017224275,0.00680862
5.652,-0.005413938,-0.001810558,0.075763688,-0.017222229,0.006809089
5.656,-0.005416151,-0.001810156,0.075763555,-0.017221424,0.006807178
5.66,-0.005414508,-0.001810055,0.075764961,-0.017222195,0.006803423
5.664,-0.005415112,-0.001810189,0.075764656,-0.017222564,0.006802384
5.668,-0.005417224,-0.001809351,0.07576493,-0.017223168,0.006804295
5.672,-0.00541652,-0.001808547,0.07576325,-0.017221492,0.006803725
5.676,-0.005416319,-0.001808815,0.075761578,-0.017221525,0.006802686
5.68,-0.00541709,-0.001810625,0.075761109,-0.017223033,0.006802149
5.684,-0.005417023,-0.001811698,0.075761977,-0.017223201,0.006801311
5.688,-0.005415548,-0.001811765,0.075762781,-0.017221928,0.006800841
5.692,-0.005415682,-0.001811363,0.075762516,-0.017221223,0.006801613
5.696,-0.005417425,-0.001812637,0.075760969,-0.017220184,0.006802116
5.7,-0.005421717,-0.001814481,0.075759531,-0.017218943,0.006800708
5.704,-0.005426143,-0.00181438,0.075760672,-0.017219313,0.006800339
5.708,-0.00542574,-0.00181324,0.075761039,-0.01721985,0.006801076
5.712,-0.005423125,-0.001811698,0.075761711,-0.017221861,0.006802048
5.716,-0.00542289,-0.001811564,0.075761977,-0.017224039,0.006801847
5.72,-0.005424533,-0.001813542,0.075761773,-0.017224375,0.006801479
5.724,-0.005425002,-0.001815017,0.075761242,-0.017224543,0.006801881
5.728,-0.005423963,-0.001814548,0.075762047,-0.017224811,0.006802384
5.732,-0.00542289,-0.001814078,0.075762516,-0.017224275,0.006801646
5.736,-0.005424332,-0.00181438,0.075761711,-0.017222666,0.006799769
5.74,-0.005426947,-0.001815654,0.075761203,-0.017219781,0.006797992
5.744,-0.005427048,-0.001815788,0.075761539,-0.01722015,0.006797522
5.748,-0.005424969,-0.001814917,0.075761945,-0.017219313,0.006797589
5.752,-0.005423628,-0.001815554,0.075761508,-0.017218475,0.006798528
5.756,-0.005424701,-0.001816392,0.075761039,-0.01721901,0.006797824
5.76,-0.005427282,-0.0018178,0.07576107,-0.017220084,0.006796852
5.764,-0.005428254,-0.001818068,0.075762883,-0.01722166,0.00679655
5.768,-0.005427182,-0.001817062,0.075763617,-0.01722233,0.006796517
5.772,-0.005425472,-0.001815855,0.075763117,-0.0172229,0.006796751
5.776,-0.005425572,-0.00181599,0.07576275,-0.017224711,0.006796114
5.78,-0.005425137,-0.001817096,0.075763047,-0.017225918,0.006795142
5.784,-0.005424566,-0.001817398,0.07576382,-0.017226621,0.00679474
5.788,-0.005423695,-0.001816593,0.075764391,-0.017225885,0.00679541
5.792,-0.005422756,-0.00181656,0.075763555,-0.01722518,0.006797187
5.796,-0.005423393,-0.001817767,0.07576218,-0.01722451,0.006796181
5.8,-0.005424533,-0.001819342,0.075761438,-0.01722357,0.006794237
5.804,-0.005424667,-0.001819242,0.075761711,-0.017222631,0.006794203
5.808,-0.005424667,-0.001817565,0.075761578,-0.017222531,0.006796114
5.812,-0.005426511,-0.001816392,0.075761609,-0.017220486,0.006797153
5.816,-0.005428858,-0.001817062,0.075761375,-0.017218676,0.006796785
5.82,-0.005430501,-0.001818236,0.075762547,-0.017220654,0.006795913
5.824,-0.005431339,-0.0018178,0.075763383,-0.017220486,0.00679474
5.828,-0.00542973,-0.001817029,0.075763719,-0.017220385,0.006793968
5.832,-0.005427651,-0.001816425,0.075763016,-0.017219313,0.006793164
5.836,-0.005426746,-0.001817029,0.075762148,-0.017219178,0.006791823
5.84,-0.005427249,-0.00181837,0.075761406,-0.017220184,0.006790448
5.844,-0.005427249,-0.001819443,0.075761477,-0.017221424,0.006789476
5.848,-0.005425908,-0.001819208,0.075761977,-0.017223537,0.00678961
5.852,-0.005423795,-0.001818906,0.075762313,-0.017225783,0.006790045
5.856,-0.005423326,-0.001819175,0.075762047,-0.017228398,0.006789744
5.86,-0.005425069,-0.001819678,0.075761039,-0.017229305,0.006790012
5.864,-0.005426143,-0.001819443,0.075760633,-0.017228264,0.006789644
5.868,-0.005425002,-0.001819208,0.075761172,-0.017226018,0.006790381
5.872,-0.00542403,-0.001819711,0.075760469,-0.017224107,0.006790012
5.876,-0.005425841,-0.00182075,0.075758758,-0.017223504,0.006789644
5.88,-0.005428053,-0.001821086,0.075758391,-0.017224275,0.00678857
5.884,-0.005429428,-0.00182075,0.075759633,-0.017224844,0.006788336
5.888,-0.005428422,-0.001820181,0.075759867,-0.017224945,0.006789308
5.892,-0.005427014,-0.001820683,0.075758625,-0.017225045,0.006790649
5.896,-0.005428422,-0.001820818,0.075758023,-0.017226354,0.006790347
5.9,-0.005430132,-0.00182075,0.07575893,-0.017228432,0.006790113
5.904,-0.005431239,-0.00182075,0.075759797,-0.017227729,0.006790213
5.908,-0.005430803,-0.001819946,0.075760539,-0.017226855,0.006791152
5.912,-0.005430668,-0.001819443,0.075760469,-0.017225783,0.006791454
5.916,-0.005430233,-0.001820181,0.075759227,-0.017226689,0.00678971
5.92,-0.005430032,-0.001820784,0.0757595,-0.017228701,0.006787632
5.924,-0.005430367,-0.001820683,0.0757605,-0.017227963,0.006786827
5.928,-0.005433317,-0.001819041,0.075761344,-0.017225684,0.006788135
5.932,-0.005435195,-0.001817163,0.075762078,-0.017225717,0.006789644
5.936,-0.005434088,-0.001816493,0.075761508,-0.017227293,0.006789073
5.94,-0.005433585,-0.001817398,0.075760203,-0.017228768,0.006788034
5.944,-0.005433686,-0.001817901,0.075760234,-0.017229705,0.006788101
5.948,-0.005433217,-0.0018178,0.075760633,-0.017229471,0.006789644
5.952,-0.005433988,-0.001818035,0.075760133,-0.017228299,0.006790548
5.956,-0.005434591,-0.001818906,0.07575893,-0.017228633,0.00678961
5.96,-0.0054361,-0.001819912,0.075758461,-0.01722927,0.006788403
5.964,-0.005437307,-0.001820415,0.075759594,-0.017228701,0.006787866
5.968,-0.005436402,-0.00182008,0.075760539,-0.017227963,0.006788771
5.972,-0.005435899,-0.001820047,0.075760031,-0.017228131,0.006789845
5.976,-0.005435631,-0.001820985,0.07575893,-0.0172286,0.00678971
5.98,-0.00543714,-0.001821622,0.075758125,-0.017228465,0.006789107
5.984,-0.005437408,-0.001820918,0.075758859,-0.017227963,0.006788671
5.988,-0.005435362,-0.001819644,0.075760031,-0.017229137,0.006790012
5.992,-0.005434591,-0.001818404,0.075760266,-0.017230041,0.006791554
5.996,-0.005435798,-0.001819074,0.075759531,-0.017230377,0.006790783
6,-0.005436637,-0.00182075,0.075758758,-0.017230377,0.006788638
6.004,-0.005437374,-0.001820382,0.075759969,-0.017231617,0.006788906
6.008,-0.00543724,-0.001818839,0.07576057,-0.017231918,0.006790582
6.012,-0.005437441,-0.001816392,0.075760805,-0.017231953,0.006790649
6.016,-0.00543714,-0.001815386,0.075761141,-0.017233059,0.006790045
6.02,-0.005437408,-0.001815219,0.075760875,-0.017232959,0.006789274
6.024,-0.005438447,-0.001816425,0.075760938,-0.01723135,0.006788939
6.028,-0.005437843,-0.001816526,0.075761109,-0.017230242,0.006789274
6.032,-0.005438044,-0.001815855,0.075760703,-0.017229705,0.006790683
6.036,-0.005438547,-0.001817029,0.075759461,-0.017230578,0.006790381
6.04,-0.00543952,-0.001817733,0.075759063,-0.017232891,0.006788939
6.044,-0.005438983,-0.001818001,0.07575993,-0.017234936,0.006788101
6.048,-0.005438078,-0.001817163,0.075761242,-0.017236178,0.006788302
6.052,-0.005438715,-0.001816425,0.075760633,-0.017235641,0.006788805
6.056,-0.005440291,-0.001817834,0.075757516,-0.01723507,0.006789979
6.06,-0.005442906,-0.001820114,0.075756516,-0.017235104,0.006789644
6.064,-0.005443812,-0.001820717,0.075758625,-0.017235305,0.006789811
6.068,-0.00544361,-0.001819108,0.075760398,-0.017235607,0.006791219
6.072,-0.005444516,-0.001817666,0.075760734,-0.017235506,0.006792728
6.076,-0.005445823,-0.001818102,0.075761172,-0.017235406,0.006792326
6.08,-0.005446661,-0.001820348,0.075760875,-0.017234266,0.006791454
6.084,-0.005446158,-0.001821455,0.07576107,-0.017233092,0.006791655
6.088,-0.005444851,-0.001820683,0.075761305,-0.017231516,0.006792125
6.092,-0.005445119,-0.001820248,0.075761875,-0.017230812,0.006794169
6.096,-0.005446527,-0.001820717,0.075761977,-0.017228701,0.006794941
6.1,-0.005447533,-0.001821823,0.075760805,-0.017227795,0.006794371
6.104,-0.005447533,-0.00182236,0.075761039,-0.017228801,0.006794337
6.108,-0.005446963,-0.001822393,0.075761203,-0.017229672,0.006795645
6.112,-0.005445287,-0.001822393,0.075761539,-0.017231551,0.006796852
6.116,-0.005444717,-0.001823232,0.075761039,-0.017232355,0.006796617
6.12,-0.005445655,-0.001824271,0.075760367,-0.017232455,0.006796014
6.124,-0.005447332,-0.001825109,0.075759797,-0.017231047,0.006795578
6.128,-0.005447131,-0.001825746,0.075759297,-0.017229906,0.006796517
6.132,-0.005445924,-0.001825981,0.0757595,-0.017229236,0.006796047
6.136,-0.005446158,-0.001826987,0.075757617,-0.017228768,0.006793734
6.14,-0.0054476,-0.001827657,0.075756281,-0.017228533,0.006791856
6.144,-0.005447097,-0.001826651,0.075757687,-0.017230545,0.006791688
6.148,-0.005444884,-0.001824371,0.075759867,-0.017232389,0.006793063
6.152,-0.00544418,-0.001822762,0.075759531,-0.017231047,0.006793499
6.156,-0.005443845,-0.00182236,0.075758961,-0.017229807,0.006792426
6.16,-0.005443174,-0.001823332,0.075759227,-0.017231215,0.006790951
6.164,-0.00544418,-0.001824405,0.075759695,-0.017231885,0.006790481
6.168,-0.005444013,-0.001824371,0.07575943,-0.017229035,0.006790415
6.172,-0.005443442,-0.001825176,0.075759359,-0.017226723,0.00678971
6.176,-0.005444046,-0.001825444,0.075759125,-0.017225549,0.006788872
6.18,-0.005444516,-0.001826819,0.075758727,-0.017224777,0.006787564
6.184,-0.005444013,-0.001826719,0.075759359,-0.017226354,0.006787397
6.188,-0.005442638,-0.00182588,0.075761109,-0.017226891,0.00678971
6.192,-0.005442236,-0.001825277,0.075761375,-0.017226855,0.006790314
6.196,-0.005442906,-0.001824908,0.075760133,-0.017228299,0.006790314
6.2,-0.005443845,-0.001825109,0.075760469,-0.01723098,0.00679085
6.204,-0.005444549,-0.001825646,0.075761438,-0.017231584,0.006791353
6.208,-0.005443375,-0.001825511,0.075761477,-0.017231852,0.006792594
6.212,-0.005442102,-0.001825478,0.075760539,-0.017229975,0.006792661
6.216,-0.005442839,-0.001826819,0.075758086,-0.017226621,0.006791387
6.22,-0.005444247,-0.001828395,0.075756109,-0.017224678,0.006789543
6.224,-0.005444549,-0.001828328,0.075756344,-0.017224441,0.006787598
6.228,-0.005443007,-0.001826719,0.075757789,-0.017224945,0.006787934
6.232,-0.005441532,-0.001825947,0.075759094,-0.017226287,0.006789375
6.236,-0.005441331,-0.001826484,0.0757595,-0.017228533,0.006791219
6.24,-0.005443141,-0.001827624,0.075759359,-0.017229807,0.00679256
6.244,-0.005444448,-0.001827322,0.075759867,-0.017230746,0.006794036
6.248,-0.005443945,-0.001826618,0.075759461,-0.017230678,0.006796818
6.252,-0.005444113,-0.001827087,0.075758961,-0.017230711,0.006798897
6.256,-0.00544475,-0.00182816,0.07575668,-0.017230578,0.006799534
6.26,-0.005445957,-0.001829233,0.0757545,-0.01723232,0.006800205
6.264,-0.00544703,-0.001830172,0.075754672,-0.017234971,0.006801244
6.268,-0.005445991,-0.00183101,0.075755773,-0.017236848,0.00680406
6.272,-0.00544522,-0.001831412,0.075755273,-0.017237082,0.006806139
6.276,-0.005446594,-0.001832318,0.075754766,-0.017237652,0.006806273
6.28,-0.005447667,-0.001833893,0.075754836,-0.017239195,0.006806139
6.284,-0.005447868,-0.001834765,0.075755609,-0.01723943,0.006806843
6.288,-0.005446661,-0.001834597,0.075756414,-0.017237719,0.006807044
6.292,-0.00544646,-0.001833659,0.075756781,-0.017238355,0.006807882
6.296,-0.005448773,-0.001833391,0.075756609,-0.017239027,0.006808486
6.3,-0.005449645,-0.001834463,0.07575507,-0.017240199,0.006807279
6.304,-0.005449109,-0.001834463,0.075755906,-0.017241373,0.006806642
6.308,-0.005447131,-0.001832016,0.075756109,-0.017241877,0.006806407
6.312,-0.005446226,-0.001830138,0.075756141,-0.017241775,0.006806508
6.316,-0.005446259,-0.001830474,0.075755,-0.017241205,0.006805536
6.32,-0.005446997,-0.001831647,0.075754,-0.017241809,0.006804094
6.324,-0.005447097,-0.001832586,0.075753867,-0.017242313,0.006803859
6.328,-0.005445454,-0.001832519,0.075752453,-0.017240971,0.006803457
6.332,-0.005445287,-0.001832351,0.07575232,-0.017240066,0.006802686
6.336,-0.00544693,-0.001832686,0.075751922,-0.0172401,0.006801344
6.34,-0.005448304,-0.001833357,0.075752219,-0.017241877,0.006800741
6.344,-0.005448204,-0.001833826,0.075752859,-0.01724409,0.006801177
6.348,-0.00544646,-0.001833323,0.075753227,-0.017243318,0.006802384
6.352,-0.005445689,-0.001832921,0.075752289,-0.01724134,0.006802551
6.356,-0.005446393,-0.001833558,0.075750375,-0.017239529,0.006800104
6.36,-0.005446829,-0.0018351,0.075749977,-0.01723943,0.006797187
6.364,-0.005446695,-0.00183453,0.075751648,-0.017240367,0.006796248
6.368,-0.005445186,-0.001832753,0.075753359,-0.017239832,0.006796583
6.372,-0.005445354,-0.001831748,0.07575343,-0.017237619,0.006796751
6.376,-0.005446729,-0.001831681,0.075752422,-0.017236814,0.006796382
6.38,-0.005449544,-0.001833592,0.075751547,-0.017234902,0.006796416
6.384,-0.005451556,-0.001835067,0.075750477,-0.017232355,0.006796315
6.388,-0.005450785,-0.001835,0.075749539,-0.017230711,0.006796282
6.392,-0.005450651,-0.001835436,0.075749875,-0.017229773,0.006796483
6.396,-0.005451087,-0.001836475,0.075749742,-0.017229975,0.006795343
6.4,-0.005452663,-0.001837481,0.075748938,-0.01723108,0.006794404
6.404,-0.005454674,-0.001838587,0.075749641,-0.017230545,0.006794874
6.408,-0.005454238,-0.001838587,0.075750813,-0.017230545,0.006796349
6.412,-0.005453735,-0.001838319,0.075750273,-0.017229539,0.00679712
6.416,-0.005454373,-0.00183899,0.075747961,-0.017228734,0.00679702
6.42,-0.005454607,-0.001839727,0.075746992,-0.01722974,0.006795846
6.424,-0.005455546,-0.001839459,0.075748664,-0.017230912,0.006797489
6.428,-0.005455814,-0.001838084,0.075750313,-0.017231584,0.006800607
6.432,-0.005456351,-0.001835972,0.075751586,-0.017231818,0.006802149
6.436,-0.005457323,-0.001834966,0.075751414,-0.017231551,0.00680178
6.44,-0.005457893,-0.00183443,0.075750211,-0.017231885,0.006800104
6.444,-0.005458865,-0.001833927,0.075750039,-0.01723098,0.006799937
6.448,-0.005457524,-0.001833256,0.075750813,-0.017230477,0.006801545
6.452,-0.005456485,-0.001833391,0.075749641,-0.017229941,0.006801579
6.456,-0.005457323,-0.001834732,0.075747195,-0.017228633,0.006800238
6.46,-0.005459536,-0.001836006,0.075745852,-0.017228768,0.006798629
6.464,-0.005461112,-0.001836978,0.075746484,-0.017228131,0.006797388
6.468,-0.005461246,-0.001836844,0.075747562,-0.017226287,0.006798059
6.472,-0.005461112,-0.001835871,0.075747898,-0.017226119,0.006798092
6.476,-0.005461782,-0.001836274,0.075746687,-0.017226555,0.006796751
6.48,-0.005462822,-0.001837447,0.075745445,-0.017228465,0.006795343
6.484,-0.00546252,-0.001837011,0.075746352,-0.017231383,0.006795813
6.488,-0.005460441,-0.001835268,0.075748031,-0.017234131,0.006796751
6.492,-0.005458497,-0.001833122,0.075749305,-0.017237619,0.006798763
6.496,-0.005458631,-0.001832619,0.075749539,-0.017239965,0.006799836
6.5,-0.005459938,-0.001832049,0.075750078,-0.017242178,0.006799869
6.504,-0.005459871,-0.001831848,0.075750578,-0.017242648,0.006798897
6.508,-0.005458966,-0.001830507,0.075751688,-0.017244057,0.006799098
6.512,-0.005457356,-0.001829199,0.075751984,-0.017244559,0.006799836
6.516,-0.005457323,-0.001829065,0.075751586,-0.017245699,0.006798964
6.52,-0.005458329,-0.001830541,0.075751219,-0.017244424,0.006797891
6.524,-0.005458865,-0.001831412,0.075751148,-0.017242982,0.006797724
6.528,-0.005459,-0.001830339,0.075751414,-0.017241574,0.006797656
6.532,-0.005458664,-0.001829937,0.075750008,-0.017239932,0.006796986
6.536,-0.005458698,-0.001830105,0.075749742,-0.017239127,0.006795578
6.54,-0.005459402,-0.001830507,0.075748867,-0.017240133,0.006794874
6.544,-0.005459502,-0.001830976,0.07574843,-0.017239631,0.006795745
6.548,-0.005458865,-0.001830138,0.075748633,-0.017239295,0.006796952
6.552,-0.005458631,-0.001829166,0.075748703,-0.017239463,0.006797925
6.556,-0.005459301,-0.001828998,0.075747727,-0.017240469,0.006798092
6.56,-0.005461011,-0.001829702,0.075747594,-0.017240166,0.006798025
6.564,-0.005462621,-0.001830339,0.07574907,-0.017239898,0.00679826
6.568,-0.005462956,-0.001829669,0.075749203,-0.017240367,0.006799869
6.572,-0.005463291,-0.001828328,0.075748297,-0.017241607,0.006800741
6.576,-0.005465303,-0.001827389,0.075748898,-0.017242982,0.006799836
6.58,-0.005466945,-0.001827791,0.07574843,-0.01724248,0.006799869
6.584,-0.005467817,-0.001828965,0.075748398,-0.017240469,0.006799702
6.588,-0.005466979,-0.001828261,0.075749102,-0.017239229,0.006799869
6.592,-0.005465202,-0.001827154,0.075749039,-0.017238391,0.006799434
6.596,-0.005465269,-0.001827758,0.075748898,-0.017237752,0.006798461
6.6,-0.005465638,-0.001829032,0.075747391,-0.017238189,0.006797388
6.604,-0.005465638,-0.001830373,0.075746859,-0.017238926,0.006797958
6.608,-0.005466878,-0.001830842,0.075747727,-0.01723782,0.006798964
6.612,-0.005468152,-0.001829769,0.075747898,-0.017238322,0.006798796
6.616,-0.00546832,-0.001828831,0.075748297,-0.017240535,0.006796382
6.62,-0.005467013,-0.001828328,0.075748398,-0.017242715,0.006793801
6.624,-0.005466375,-0.001828563,0.075747898,-0.017244727,0.006793767
6.628,-0.005466812,-0.00182749,0.075748062,-0.0172459,0.006795477
6.632,-0.005467583,-0.001826853,0.07574793,-0.017244895,0.00679702
6.636,-0.00546708,-0.00182806,0.075746687,-0.017244826,0.006796349
6.64,-0.005468287,-0.001830373,0.075745383,-0.017244391,0.00679541
6.644,-0.005469058,-0.001831211,0.075745484,-0.01724285,0.006793968
6.648,-0.00546775,-0.001831312,0.075745383,-0.017241072,0.006792829
6.652,-0.005466912,-0.001831546,0.075744211,-0.017240033,0.00679142
6.656,-0.005466711,-0.001832385,0.075742695,-0.017238926,0.006789208
6.66,-0.005467415,-0.00183386,0.075740422,-0.017236445,0.006786123
6.664,-0.005468186,-0.001834094,0.075740688,-0.01723507,0.006784279
6.668,-0.005467146,-0.001833592,0.075741328,-0.017233227,0.006784581
6.672,-0.005466375,-0.001833625,0.07574032,-0.017232656,0.006786291
6.676,-0.005467683,-0.001834061,0.075739414,-0.017232254,0.006785117
6.68,-0.005468287,-0.001834597,0.075739078,-0.017232119,0.006782871
6.684,-0.005469091,-0.001834597,0.07573975,-0.017234199,0.006781764
6.688,-0.005468555,-0.001833256,0.075741188,-0.017236479,0.006783776
6.692,-0.005467549,-0.001832016,0.075741961,-0.017238592,0.006784447
6.696,-0.005467583,-0.001831848,0.075741422,-0.017240637,0.006783675
6.7,-0.005469091,-0.001833793,0.075740758,-0.017241273,0.006783743
6.704,-0.005469661,-0.001835335,0.075740555,-0.017239965,0.006783977
6.708,-0.005468823,-0.001835603,0.075740656,-0.017237184,0.006784346
6.712,-0.005469058,-0.001835771,0.075739852,-0.017236881,0.006784111
6.716,-0.005468454,-0.001835603,0.075738742,-0.017239262,0.006782301
6.72,-0.005468019,-0.001836341,0.075737937,-0.017239965,0.006780323
6.724,-0.005468253,-0.001836844,0.075738242,-0.017239529,0.006779652
6.728,-0.005468521,-0.001836106,0.075738711,-0.017238959,0.00678163
6.732,-0.005468488,-0.001836207,0.075738773,-0.017238691,0.006781731
6.736,-0.005469091,-0.001836341,0.075738914,-0.017240971,0.006781161
6.74,-0.005471639,-0.001836609,0.075739211,-0.017241943,0.006780691
6.744,-0.005472544,-0.001836207,0.075739344,-0.017241574,0.006781194
6.748,-0.005471572,-0.001836039,0.075739883,-0.017240871,0.006783542
6.752,-0.005471103,-0.00183614,0.075739914,-0.017241039,0.006784983
6.756,-0.005472276,-0.00183624,0.07573975,-0.017241809,0.006784111
6.76,-0.005474824,-0.001836978,0.075740047,-0.017242447,0.006783105
6.764,-0.005475025,-0.001837447,0.075741156,-0.017243688,0.006782435
6.768,-0.005473115,-0.001836944,0.075741422,-0.017243418,0.006784547
6.772,-0.005472578,-0.001836173,0.075740992,-0.017244057,0.006785653
6.776,-0.005473349,-0.001836006,0.075741461,-0.017245062,0.006785184
6.78,-0.005474087,-0.001836844,0.075741156,-0.017244625,0.00678448
6.784,-0.005474858,-0.001836106,0.075741625,-0.017243117,0.006782837
6.788,-0.005473383,-0.001835302,0.075743031,-0.017242111,0.006783374
6.792,-0.005472411,-0.001835469,0.075742867,-0.017241273,0.006783441
6.796,-0.005472846,-0.001836274,0.075741328,-0.017241709,0.006781932
6.8,-0.00547345,-0.001836911,0.075741156,-0.017242814,0.006780758
6.804,-0.005473852,-0.001836609,0.075742367,-0.017243117,0.006779887
6.808,-0.005473148,-0.001835804,0.075743102,-0.017243352,0.006781362
6.812,-0.005473316,-0.001835469,0.075742266,-0.017243252,0.006782904
6.816,-0.005474154,-0.001836441,0.075740852,-0.017242949,0.006782301
6.82,-0.005475495,-0.00183738,0.075740289,-0.017242313,0.006778814
6.824,-0.005476099,-0.001836441,0.075741055,-0.01724248,0.006776635
6.828,-0.00547516,-0.001835335,0.075741289,-0.017240703,0.00677707
6.832,-0.005475025,-0.001835503,0.075742367,-0.017240568,0.006778277
6.836,-0.00547469,-0.001836073,0.075742266,-0.017240736,0.006777473
6.84,-0.005474624,-0.001837213,0.075740992,-0.017241139,0.006775629
6.844,-0.005474087,-0.001838017,0.075740617,-0.017242648,0.006775562
6.848,-0.005471941,-0.001838017,0.075740484,-0.017243051,0.006777305
6.852,-0.005469594,-0.001836676,0.075741023,-0.017245096,0.006778881
6.856,-0.005469058,-0.001836307,0.075740852,-0.017246471,0.006778244
6.86,-0.005471337,-0.001836408,0.075740922,-0.017247744,0.006778144
6.864,-0.005472746,-0.00183624,0.075741523,-0.017246939,0.006778244
6.868,-0.005472578,-0.001835939,0.075741289,-0.017244559,0.006778814
6.872,-0.005472209,-0.001835268,0.075741492,-0.017245564,0.006779049
6.876,-0.005472377,-0.001834597,0.075741594,-0.017249287,0.006777372
6.88,-0.005472176,-0.001833625,0.075743102,-0.017253209,0.0067765
6.884,-0.005473014,-0.001832686,0.075745047,-0.017253645,0.006776702
6.888,-0.005474053,-0.001831647,0.075744875,-0.017250494,0.006777573
6.892,-0.005475093,-0.001832418,0.075744211,-0.017247576,0.006777138
6.896,-0.005476803,-0.001834128,0.075743805,-0.017246068,0.006775964
6.9,-0.005478278,-0.001835268,0.075743602,-0.01724627,0.006775293
6.904,-0.005479016,-0.001835469,0.075745016,-0.017247711,0.006775562
6.908,-0.005477272,-0.00183453,0.075745984,-0.01724751,0.006776165
6.912,-0.005476099,-0.001834296,0.075744945,-0.017245699,0.006776031
6.916,-0.005474958,-0.001834564,0.075743773,-0.017245666,0.006775059
6.92,-0.005475797,-0.001835302,0.075742664,-0.017244994,0.006772611
6.924,-0.005476199,-0.0018351,0.075742836,-0.017244727,0.006772276
6.928,-0.005475093,-0.001833793,0.075743602,-0.017244559,0.006773249
6.932,-0.005473584,-0.001832183,0.075744008,-0.017245666,0.006773852
6.936,-0.005471941,-0.001831915,0.075744711,-0.017247309,0.006773249
6.94,-0.005472008,-0.001833089,0.075744445,-0.017247309,0.006772511
6.944,-0.00547174,-0.001833592,0.075745445,-0.017247408,0.006771907
6.948,-0.005469527,-0.001832686,0.075745281,-0.017247879,0.006772712
6.952,-0.005467851,-0.001831178,0.075744781,-0.017248615,0.006771505
6.956,-0.00546822,-0.001831345,0.075743672,-0.017247744,0.006769493
6.96,-0.005470097,-0.001832452,0.075743203,-0.01724724,0.006768186
6.964,-0.005471405,-0.001832418,0.075743469,-0.017247107,0.006767582
6.968,-0.005470399,-0.001831915,0.0757435,-0.017247744,0.006769426
6.972,-0.005469091,-0.001833055,0.075742836,-0.01724885,0.006771639
6.976,-0.005469393,-0.001834195,0.075741695,-0.017250996,0.006772175
6.98,-0.005471069,-0.001834933,0.075741695,-0.017252438,0.006772544
6.984,-0.005471069,-0.001835167,0.075742797,-0.017253041,0.006771773
6.988,-0.005468991,-0.001835302,0.075744109,-0.017252572,0.006772175
6.992,-0.005468588,-0.001834597,0.075743938,-0.017251936,0.00677298
6.996,-0.005469795,-0.001834463,0.075742328,-0.01725227,0.006771203
7,-0.005470902,-0.001834799,0.075742602,-0.017251834,0.006769426
7.004,-0.005471606,-0.00183443,0.075743836,-0.017250895,0.006769594
7.008,-0.005471136,-0.001833625,0.075744945,-0.017249654,0.00677174
7.012,-0.005470667,-0.001833391,0.075743773,-0.017248314,0.006773382
7.016,-0.005472343,-0.00183386,0.075742031,-0.017248314,0.006772879
7.02,-0.005475461,-0.001834631,0.07574193,-0.017248045,0.006772108
7.024,-0.005475562,-0.001834832,0.07574243,-0.017250092,0.006773047
7.028,-0.005473249,-0.001833659,0.075742664,-0.017252404,0.006773818
7.032,-0.005471606,-0.001832318,0.075741125,-0.017253611,0.006773483
