time,F8,F4,Fz,F3,F7
0,0.022858623,0.032043781,0.084101062,0.044804660156249995,0.029140658
0.004,0.022857953,0.032042172,0.084097813,0.044804660156249995,0.0291421
0.008,0.022857719,0.032042339843749996,0.084097914,0.044804691,0.029144615234374997
0.012,0.022857818,0.03204368,0.084100969,0.044805094,0.029144783
0.016,0.022858053,0.032043111,0.084103078,0.04480573,0.029141766
0.02,0.022857082,0.032042037,0.084101297,0.04480523,0.029141363
0.024,0.022857551,0.032042271484374996,0.084099086,0.044804828,0.029143811
0.028,0.022858725,0.032042641,0.084099992,0.044804156,0.029145318
0.032,0.022859059,0.032043346,0.084102906,0.044803383,0.029145519531249997
0.036,0.022858656249999998,0.032044049,0.084105055,0.044802414,0.029143811
0.04,0.022857919921874997,0.032044854,0.084105156,0.044801105,0.029142838
0.044,0.022858154,0.032043412109374995,0.084101539,0.044800168,0.02914542
0.048,0.022859764,0.032043479,0.084099086,0.044800234,0.029146693
0.052,0.0228605,0.032043111,0.084099727,0.044798961,0.029144179687499997
0.056,0.022861406,0.032043043,0.084101672,0.044799563,0.029143979
0.06,0.022861943359374998,0.032043445,0.084102641,0.04479973,0.029144381
0.064,0.02286201,0.032044417968749996,0.084101469,0.044798691,0.0291421
0.068,0.022860902,0.032042775,0.084100359,0.044797382812499995,0.029140357
0.072,0.022859596,0.032041635,0.084101805,0.044797113281249995,0.029142805
0.076,0.02285973,0.032042875,0.084103211,0.044797113281249995,0.029142369
0.08,0.02286134,0.032043982,0.084102203,0.044796546874999996,0.029142805
0.084,0.022861574,0.032044283203124996,0.084100562,0.044796445312499995,0.029143005859374998
0.088,0.022861305,0.032044552734374995,0.084100695,0.044795605,0.029142300781249998
0.092,0.022861103515624998,0.032043781,0.084101906,0.0447945,0.029141697
0.096,0.022862043,0.032043145,0.084103445,0.0447945,0.029140156
0.1,0.022861271484374997,0.032042607,0.084103242,0.04479507,0.029140088
0.104,0.022859863,0.032042709,0.084102305,0.04479527,0.029141832
0.108,0.022860667968749998,0.032041971,0.08410207,0.044794199,0.029141732
0.112,0.022860937499999998,0.0320411,0.08410093,0.044793124999999996,0.029139049
0.116,0.022860602,0.032040764,0.084101773,0.044792992,0.02913734
0.12,0.02286134,0.032040563,0.084101938,0.044792050781249995,0.029137473
0.124,0.022861172,0.032039824,0.084099656,0.04478984,0.029137541015624997
0.128,0.022861103515624998,0.032040328124999996,0.084100461,0.044788566,0.029137874999999997
0.132,0.022861139,0.032040629,0.084101734,0.044787625,0.029137373046874998
0.136,0.022859328124999998,0.032039623,0.084100867,0.044786086,0.029136467
0.14,0.022858757812499998,0.03203892,0.084100195,0.044784976562499995,0.029137139
0.144,0.02285973,0.032039187499999996,0.084100398,0.044785547,0.029137943359374998
0.148,0.022860166,0.03203902,0.084100531,0.044785145,0.029137307
0.152,0.022859662109374998,0.032039490234374995,0.084102844,0.044784543,0.029139955078124998
0.156,0.022861037,0.032041333984374996,0.084106797,0.044785582,0.029143273
0.16,0.022862178,0.03204177,0.084105992,0.044786152343749996,0.029141027343749997
0.164,0.02286201,0.032040529,0.084101938,0.044784976562499995,0.029136802734374998
0.168,0.022861977,0.032040361328124996,0.084101367,0.044783769531249996,0.029137172
0.172,0.022861271484374997,0.032039422,0.084102977,0.044781925781249995,0.029137105468749997
0.176,0.022859127,0.032038854,0.084104219,0.04478109,0.02913791
0.18,0.0228605,0.032039824,0.084104656,0.044780953124999995,0.029137874999999997
0.184,0.022861808593749998,0.032040428,0.084103383,0.044780652,0.029136301
0.188,0.022862178,0.032040461,0.084101203,0.044780453,0.029135764
0.192,0.022860869,0.032040529,0.084100562,0.044779246093749996,0.029135127
0.196,0.022860602,0.032040764,0.084101539,0.044778406,0.029136031
0.2,0.022859898437499998,0.032040764,0.084102375,0.044779344,0.029139754
0.204,0.022858656249999998,0.032040094,0.084101539,0.044779012,0.029137874999999997
0.208,0.022858154,0.032040361328124996,0.084101906,0.044778574,0.029132076
0.212,0.022857919921874997,0.032041400390624995,0.08410432,0.044778742,0.029131203124999998
0.216,0.022858992,0.032041836,0.084105992,0.044778273437499995,0.029132947265624997
0.22,0.022860568,0.032042607,0.084105594,0.044777973,0.029133617
0.224,0.022862244140624998,0.032041602,0.084102273,0.044777301,0.029133048828124997
0.228,0.022862412109374997,0.032040394531249995,0.08410093,0.044776766,0.029131572
0.232,0.022862512,0.032040328124999996,0.084102477,0.044777332,0.029130566
0.236,0.02286258,0.032041501953124996,0.084105891,0.044778171874999995,0.029132779296874998
0.24,0.022861943359374998,0.0320411,0.084106125,0.044778441,0.029133686
0.244,0.022859965,0.032038584,0.08410482,0.04477807,0.029134289
0.248,0.02285973,0.032037611,0.084105656,0.044777234374999995,0.029136099609374997
0.252,0.022860736,0.032038451171874996,0.084108008,0.044775890624999995,0.029133617
0.256,0.022861373046874998,0.032038785,0.084107906,0.044775121093749995,0.029132746
0.26,0.022860097656249998,0.032038283,0.08410693,0.044773914062499996,0.02913459
0.264,0.022860367187499998,0.032038383,0.084106664,0.044774047,0.029134992
0.268,0.02285916,0.032038181640624996,0.084107305,0.044774652,0.029134925781249998
0.272,0.022858757812499998,0.032038416,0.08410968,0.04477532,0.029136031
0.276,0.022859025,0.03203892,0.084112469,0.044776766,0.029136334
0.28,0.022858992,0.032038451171874996,0.084112297,0.044777734374999996,0.029137439
0.284,0.022858389,0.032036169921874996,0.084109414,0.044777098,0.029138145
0.288,0.022859395,0.032034326171874995,0.084108578,0.044775722656249996,0.029138445312499997
0.292,0.02285973,0.032033185546874995,0.084109953,0.044775559,0.029137607
0.296,0.022859193,0.032032416015624995,0.084110453,0.044775758,0.029132914062499998
0.3,0.022859496093749997,0.032032215,0.084109383,0.044776027,0.029133048828124997
0.304,0.022860265624999997,0.032032416015624995,0.084108172,0.044775925781249996,0.029134824218749997
0.308,0.022860902,0.032031813,0.084107469,0.04477482,0.029133919921874998
0.312,0.022861172,0.032031678,0.084108844,0.044774316,0.029136265624999998
0.316,0.022860602,0.032032717,0.084110523,0.044774383,0.029137976562499997
0.32,0.022862211,0.032033656,0.084109109,0.044773547,0.029138313
0.324,0.022863754,0.032033756,0.084106367,0.044772641,0.029136334
0.328,0.022863553,0.032033320312499995,0.08410532,0.044771132812499996,0.029136434
0.332,0.022863754,0.032033623,0.084107234,0.044770293,0.029139217
0.336,0.022863283203124998,0.032033387,0.084107539,0.04476959,0.02913734
0.34,0.022862748,0.032032918,0.084105891,0.044768953,0.029135059
0.344,0.022861607,0.032032951,0.08410432,0.044768484,0.029133953124999997
0.348,0.022861004,0.032033119,0.084105461,0.044768582,0.029136635
0.352,0.022860064,0.032032582,0.084107172,0.044767980468749996,0.029139117187499997
0.356,0.022860971,0.032032146484374996,0.084108609,0.04476657,0.029137874999999997
0.36,0.022863417968749997,0.032034059,0.084108578,0.044766839843749996,0.02913573
0.364,0.022863553,0.032035433593749996,0.084107172,0.044766636718749996,0.029136970703124997
0.368,0.022861673828124998,0.032035869,0.084106695,0.044766234,0.029138211
0.372,0.022861943359374998,0.032035734,0.08410807,0.044765934,0.029135193
0.376,0.022861103515624998,0.032035164062499996,0.084108578,0.044765398,0.029136199
0.38,0.02285973,0.032034594,0.084107305,0.044765699218749996,0.029136535156249997
0.384,0.022860064,0.032034561,0.084105727,0.0447655,0.029136031
0.388,0.02286107,0.032035668,0.084106227,0.044764594,0.029134958984374997
0.392,0.022861541,0.032036439453124996,0.084108172,0.044763621,0.029134859
0.396,0.022861271484374997,0.032036539,0.084109617,0.044762582,0.02913707
0.4,0.022861004,0.032036002,0.084110687,0.044762414,0.029138479
0.404,0.022861037,0.032035936,0.084109984,0.044762714843749996,0.029139318
0.408,0.022861406,0.032034427734374996,0.084107734,0.044762313,0.029136937499999998
0.412,0.02286201,0.032033086,0.084108109,0.044762078,0.029134859
0.416,0.022861406,0.032033119,0.084108977,0.044762546874999996,0.029135964843749997
0.42,0.02286134,0.032032984,0.08410707,0.044761645,0.029138145
0.424,0.022861908,0.032033185546874995,0.084105563,0.044760938,0.02913707
0.428,0.022862076,0.032032549,0.084105695,0.04476,0.029134557
0.432,0.022862679687499998,0.03203265,0.084107805,0.044759363,0.029134188
0.436,0.022863082,0.032033320312499995,0.084109578,0.044760301,0.029132611
0.44,0.022862949218749998,0.032033924,0.084109516,0.044760301,0.029134188
0.444,0.022862445,0.032033555,0.084107703,0.044759832031249995,0.029135863
0.448,0.022863115,0.032032852,0.084107172,0.044760234,0.029137874999999997
0.452,0.022864189,0.032032885,0.084109984,0.044761105,0.029140457031249997
0.456,0.022865127,0.032034025,0.084112031,0.044761609,0.029141294921874998
0.46,0.022864859374999998,0.03203483,0.084111664,0.04476218,0.029142703
0.464,0.022864658,0.032034729,0.084110086,0.044761879,0.029141766
0.468,0.022864021,0.032035398,0.084110117,0.044761574218749996,0.029140391
0.472,0.022863853515624998,0.032035064,0.084110148,0.04476057,0.029140123046874997
0.476,0.022863417968749997,0.032034125,0.084110148,0.044759664062499996,0.029139318
0.48,0.022863249999999998,0.032033488,0.084108977,0.044759664062499996,0.029134758
0.484,0.022864289062499998,0.032031979,0.084107133,0.04475916,0.029134958984374997
0.488,0.022864021,0.0320299,0.084105594,0.044758355,0.029137641
0.492,0.022863787,0.032029867,0.084106125,0.044757988,0.029139853515624998
0.496,0.022864255859374998,0.032031342,0.084107406,0.044758156,0.02913858
0.5,0.022862512,0.032031744,0.084107133,0.044756816,0.029136869140624997
0.504,0.022860736,0.032031879,0.084106531,0.044755375,0.029137238
0.508,0.022861004,0.032031645,0.084106734,0.044755105,0.029138613
0.512,0.022860568,0.032031979,0.084108109,0.044755508,0.029139217
0.516,0.022859395,0.032032348,0.084108641,0.044756781249999995,0.029137406249999998
0.52,0.022860736,0.032032215,0.084107875,0.044757953,0.029135361328124998
0.524,0.022861373046874998,0.032031209,0.084106297,0.044758624999999996,0.029137439
0.528,0.022862613,0.032030873,0.084105258,0.044758792968749996,0.029135094
0.532,0.022862178,0.032031443,0.084106461,0.04475866,0.029136199
0.536,0.022860802734374998,0.032031309,0.084107172,0.044758828,0.029138043
0.54,0.022860467,0.032031576,0.084108172,0.04476,0.029138814
0.544,0.022860232421874998,0.032031813,0.084106836,0.044760703124999995,0.029139283203124998
0.548,0.022859998,0.032031945,0.084106367,0.044761074218749995,0.029141229
0.552,0.022861742,0.032033253906249996,0.084108477,0.044761645,0.029142167968749997
0.556,0.022862445,0.032034795,0.084111187,0.044762917968749996,0.029142939
0.56,0.022861004,0.032035332031249995,0.084110586,0.044763855468749995,0.029141766
0.564,0.022861004,0.032035265624999996,0.084107875,0.044763891,0.029141128906249997
0.568,0.022861673828124998,0.032034996,0.084107172,0.044763687499999996,0.029142336
0.572,0.022861841796874997,0.032035265624999996,0.084109312,0.044763656,0.029141934
0.576,0.02286201,0.032035232,0.084110687,0.044764156,0.029140324
0.58,0.022862646,0.032035398,0.08410868,0.044765097656249996,0.029142570312499998
0.584,0.022863484,0.032035031,0.084106898,0.044765164,0.029143474609374997
0.588,0.022863718749999998,0.032034729,0.084105727,0.044764929687499996,0.029142537109374998
0.592,0.022863586,0.032033756,0.084106094,0.044764023437499995,0.0291421
0.596,0.022864592,0.032033185546874995,0.084107031,0.04476409,0.029142637
0.6,0.022863082,0.032032314453124995,0.084107406,0.044764359,0.029141094
0.604,0.02286134,0.032031543,0.084106297,0.044764191,0.029143005859374998
0.608,0.022862277343749998,0.032031979,0.084107203,0.044764461,0.029146258
0.612,0.022862378906249998,0.032032215,0.08411032,0.044764828124999996,0.029143508
0.616,0.022861271484374997,0.032031744,0.084110789,0.044765164,0.029142771
0.62,0.022862412109374997,0.032031711,0.08411082,0.044766402,0.029146357421874998
0.624,0.022864189,0.032032215,0.084108914,0.044766168,0.029145587890624998
0.628,0.022863619,0.032031846,0.084105422,0.04476543,0.02914076
0.632,0.022862847656249997,0.032031410156249995,0.084106367,0.044765531,0.029141496
0.636,0.022863586,0.032031611,0.084107836,0.044765867187499996,0.02914267
0.64,0.02286315,0.032031813,0.084106164,0.044765867187499996,0.029139721
0.644,0.022862949218749998,0.032032549,0.084103617,0.044765398,0.029142502
0.648,0.022863787,0.032032113281249996,0.084102508,0.04476543,0.029145688
0.652,0.022863853515624998,0.032031912,0.08410368,0.044766438,0.029145688
0.656,0.022864121,0.032030973,0.084103047,0.044766438,0.029143643
0.66,0.022864088,0.032030035,0.08410043,0.044765902,0.029142738
0.664,0.022863754,0.03203057,0.084099258,0.044766203,0.029144179687499997
0.668,0.022863754,0.032031576,0.084100258,0.044767175781249995,0.02914542
0.672,0.02286392,0.032032348,0.08410207,0.044767375,0.029144447265624998
0.676,0.022863754,0.032032248046874996,0.084102742,0.044767609374999996,0.029147264
0.68,0.022863451,0.032032146484374996,0.084102844,0.044767813,0.029146357421874998
0.684,0.022863518,0.032031074,0.084100531,0.044767007812499995,0.029142234
0.688,0.022862982,0.032030738,0.084100359,0.044766941406249997,0.029142066
0.692,0.022862346,0.032031140624999996,0.084102773,0.044767039,0.029141967
0.696,0.022862914,0.032031041,0.084104422,0.044766672,0.029141697
0.7,0.022862679687499998,0.032031140624999996,0.08410368,0.044767074,0.029143039062499997
0.704,0.022862244140624998,0.032031173828124995,0.084102641,0.044767039,0.029143709
0.708,0.022862178,0.032031074,0.084103281,0.044766839843749996,0.029143342
0.712,0.022862244140624998,0.032030639,0.084104953,0.044766473,0.029142570312499998
0.716,0.022861673828124998,0.032029934,0.084105125,0.0447655,0.029142336
0.72,0.02286258,0.032030605,0.084105422,0.044766605,0.029142904296874998
0.724,0.022863484,0.032031543,0.084103953,0.044766707,0.029144279
0.728,0.022863249999999998,0.032031242187499996,0.084101867,0.044766773,0.029145084
0.732,0.022862613,0.032029967,0.084103617,0.044767039,0.029143474609374997
0.736,0.022862547,0.032029465,0.084105055,0.044767344,0.029144984
0.74,0.022864055,0.032030303,0.084104656,0.044768046874999995,0.029145453124999998
0.744,0.022865664,0.032031041,0.084103953,0.044768012,0.029145084
0.748,0.022866201,0.032031309,0.084103711,0.044766941406249997,0.029143342
0.752,0.022866300781249998,0.032030537,0.084104453,0.044765633,0.029144146484374998
0.756,0.022865730468749998,0.032029432,0.084106297,0.044765699218749996,0.029144682
0.76,0.022865262,0.032029531,0.084105656,0.044765363,0.029144749999999997
0.764,0.022865027,0.032029263671874995,0.084105492,0.044764594,0.029148336
0.768,0.022863988281249997,0.032027922,0.084106898,0.044764426,0.029148336
0.772,0.022862445,0.032027353515624996,0.084109484,0.044764594,0.02914676
0.776,0.022862244140624998,0.032026514,0.084111094,0.044765566,0.029146156
0.78,0.022861908,0.032026514,0.084110188,0.044766203,0.029145921874999998
0.784,0.022862445,0.03202591,0.08411025,0.044767710937499997,0.029146258
0.788,0.022862712890624998,0.032023967,0.084110891,0.044769219,0.029147766
0.792,0.022863451,0.032023898,0.084112867,0.044769422,0.029150348
0.796,0.022864289062499998,0.032025207031249996,0.084115352,0.044770563,0.029151689453124997
0.8,0.022862914,0.032026883,0.084115688,0.044772238,0.029149711
0.804,0.022862346,0.032027621,0.084114172,0.044772809,0.029149374999999998
0.808,0.022862679687499998,0.032027117187499995,0.084113438,0.044772707,0.029149275
0.812,0.022863115,0.032027318,0.084115281,0.044772742,0.029147933593749998
0.816,0.022864423828124997,0.032028057,0.084116961,0.044772305,0.029146191406249997
0.82,0.022865799,0.032028594,0.084116625,0.044772539,0.029147531249999997
0.824,0.022867273,0.032028963,0.084116492,0.044773210937499995,0.02914827
0.828,0.022868882812499998,0.032029834,0.084116992,0.044772203,0.029148873
0.832,0.022867139,0.032029063,0.084117461,0.044770594,0.029146828
0.836,0.022864322,0.032028525,0.084118906,0.044770023,0.029144480468749998
0.84,0.022863082,0.032028963,0.084120273,0.044770227,0.029146357421874998
0.844,0.02286392,0.032028191406249996,0.084120008,0.044770895,0.029148203124999997
0.848,0.022864559,0.032026951,0.084119773,0.044770929687499995,0.029149141
0.852,0.022864859374999998,0.032026078124999996,0.084120109,0.044770191,0.029148705
0.856,0.022865396484374998,0.03202685,0.084121016,0.044770426,0.029148068359374998
0.86,0.022865697,0.032028795,0.084120914,0.044771031249999996,0.029147029296874998
0.864,0.022865294921874998,0.032029063,0.084118063,0.044770863,0.029144749999999997
0.868,0.022864289062499998,0.032028963,0.084117461,0.044770828124999995,0.029146357421874998
0.872,0.022863652,0.032028393,0.084118906,0.044770797,0.029147465
0.876,0.022864189,0.032026246093749995,0.084118672,0.044770492,0.029143441406249998
0.88,0.022863249999999998,0.032024436,0.084116219,0.044770058593749995,0.029142570312499998
0.884,0.022861305,0.032023697,0.084114844,0.044770563,0.029140960937499998
0.888,0.022859931640624997,0.032022223,0.084113906,0.044770863,0.029139586
0.892,0.022859025,0.032020379,0.084114945,0.044770359,0.029140156
0.896,0.022858757812499998,0.032020144531249996,0.084117594,0.044771132812499996,0.029142904296874998
0.9,0.022858992,0.032021352,0.084116586,0.04477123,0.029143375
0.904,0.022860232421874998,0.032022424,0.084114781,0.044771398,0.029143408
0.908,0.022861271484374997,0.032022625,0.084115016,0.044771968749999995,0.029142369
0.912,0.022861205,0.032021988,0.084115547,0.044772773437499996,0.029141832
0.916,0.022859898437499998,0.032021318,0.084115617,0.044772406,0.029140525390624998
0.92,0.022858656249999998,0.032021283,0.08411518,0.044771633,0.029140892578124997
0.924,0.022858892578124998,0.032021150390624996,0.084114078,0.044771465,0.029140391
0.928,0.022858824,0.03202058,0.084113805,0.044772406,0.02914133
0.932,0.022858490234374997,0.032019742,0.084115852,0.04477341,0.029142234
0.936,0.022859529,0.032020916,0.084117062,0.044774148,0.029141799
0.94,0.02285916,0.032021652,0.084116555,0.044773710937499996,0.029141697
0.944,0.022859931640624997,0.03202125,0.084115922,0.044773309,0.029141531249999998
0.948,0.022860635,0.032020244,0.084116758,0.044773344,0.029141496
0.952,0.022860602,0.032019674,0.084118031,0.044773242,0.029141262
0.956,0.022860434,0.032019742,0.084117727,0.044772906,0.029141396
0.96,0.022861541,0.032019742,0.084115883,0.044772773437499996,0.029139988281249998
0.964,0.022861775,0.032019607,0.084114008,0.044772906,0.029139955078124998
0.968,0.022861541,0.032018970703124996,0.084113367,0.044772839843749995,0.029138145
0.972,0.022860937499999998,0.03201907,0.084114039,0.044772406,0.029134623
0.976,0.0228604,0.032019508,0.084114914,0.044772809,0.029132611
0.98,0.022859025,0.03201907,0.084113406,0.044773210937499995,0.029133617
0.984,0.022858824,0.032019171874999995,0.084111695,0.044773746,0.029135964843749997
0.988,0.022858791015624998,0.032019943,0.084109852,0.04477368,0.029135059
0.992,0.022858254,0.032019809,0.084108844,0.044772906,0.029135563
0.996,0.022857986,0.032018232,0.084109109,0.044772438,0.029136568
1,0.022857484,0.032017496,0.084107234,0.044771398,0.02913268
1.004,0.022856479,0.032017697,0.084107234,0.04477123,0.029135361328124998
1.008,0.022854131,0.032017865,0.084107234,0.044771633,0.029138880859374997
1.012,0.022853461,0.032018469,0.084108641,0.044772707,0.02913925
1.016,0.022853863281249998,0.032019775,0.084110953,0.044774215,0.029137473
1.02,0.022854632812499998,0.032020346,0.084109445,0.044775222656249995,0.029137507812499998
1.024,0.022855404,0.032020244,0.084107305,0.044776527,0.029139217
1.028,0.022854701,0.03202068,0.084106766,0.044776797,0.029137406249999998
1.032,0.022854801,0.032021217,0.084109344,0.044778003906249995,0.02913868
1.036,0.022853662,0.032020646,0.084108812,0.044779012,0.029136099609374997
1.04,0.022850945,0.032017998046874996,0.084104047,0.04477918,0.029134422
1.044,0.022847558593749998,0.032015451,0.084100258,0.044778941406249995,0.029135764
1.048,0.022844105,0.032013641,0.084098586,0.044778508,0.029133953124999997
1.052,0.022842027343749998,0.032012467,0.084099187,0.044778137,0.029134824218749997
1.056,0.022840150390624998,0.032011191,0.084097945,0.044778003906249995,0.029135863
1.06,0.022840082,0.032010857,0.084096977,0.04477834,0.02913677
1.064,0.022840787,0.032010890624999996,0.084098117,0.044779012,0.029137943359374998
1.068,0.022840283,0.032010588,0.084099289,0.044779211,0.029139988281249998
1.072,0.022839982,0.032010354,0.0841015,0.044780285156249995,0.029142468749999997
1.076,0.022842060546874998,0.032011025390624996,0.084105086,0.044783102,0.029144984
1.08,0.022843937499999998,0.032012365,0.084105797,0.044784976562499995,0.029147599609374998
1.084,0.022845883,0.032014143,0.0841065,0.04478652,0.029151891
1.088,0.022848197,0.032015752,0.084108641,0.044787793,0.029154740234374997
1.092,0.022850744,0.032017764,0.084111828,0.044789504,0.029155578124999998
1.096,0.022853728515624998,0.032019977,0.084114648,0.044791582,0.029157355
1.1,0.02285668,0.032021922,0.084116422,0.044793527,0.029161412
1.104,0.022859059,0.032023799,0.084118063,0.044795605,0.029164865
1.108,0.022861673828124998,0.032026078124999996,0.084122359,0.044798656,0.029166877
1.112,0.022863686,0.03202799,0.084126953,0.044800973,0.029169191
1.116,0.022866703,0.032030404296874995,0.084130773,0.044802648437499995,0.02917157
1.12,0.022871464843749998,0.03203265,0.084132211,0.044806066,0.029172813
1.124,0.022875219,0.032034326171874995,0.084131945,0.04480952,0.029174890624999998
1.128,0.022877365,0.032035668,0.084132984,0.04481398,0.029177505859374998
1.132,0.022878605,0.032037277,0.08413493,0.044818773,0.029179283
1.136,0.022879881,0.03203825,0.084136133,0.044823098,0.029180121093749997
1.14,0.022880383,0.032037914,0.084134523,0.044826953,0.029179953124999998
1.144,0.022881188,0.032036506,0.084132148,0.044830645,0.029180926
1.148,0.022881689,0.032035533,0.084131578,0.044834566,0.029181126953124997
1.152,0.022883299,0.032035902,0.084133625,0.044838121093749995,0.029180221
1.156,0.022884574,0.032036439453124996,0.084134695,0.044841941406249995,0.029180857421874998
1.16,0.022885210937499997,0.032036674,0.084135398,0.044846402,0.029181932
1.164,0.02288682,0.032037848,0.084136844,0.044850355,0.029182367
1.168,0.022888765624999998,0.032039256,0.08413932,0.044853742,0.029182869140624998
1.172,0.022890475,0.032040965,0.084142375,0.044857969,0.029183607421874997
1.176,0.022893156249999998,0.032043715,0.084144352,0.044862426,0.029184244
1.18,0.022894732421874998,0.032045793,0.084144883,0.044866585937499995,0.029186256
1.184,0.022896275,0.032048141,0.084144953,0.044870809,0.029188234
1.188,0.022898119,0.032049883,0.084145359,0.044875168,0.029187832
1.192,0.022899996,0.03204975,0.084146828,0.044879762,0.029187564
1.196,0.022901773,0.032049078,0.084148242,0.04488402,0.029187564
1.2,0.022902812499999998,0.032049279,0.084148141,0.044888211,0.029187262
1.204,0.02290402,0.032049111,0.084148742,0.044892433593749996,0.029187931640624998
1.208,0.022905695,0.032049111,0.084150148,0.044897129,0.029189072265624998
1.212,0.022906736,0.032050186,0.08415193,0.044902624999999995,0.029189877
1.216,0.022908109,0.032051996,0.084153438,0.044908828,0.029189105468749997
1.22,0.022909552734374998,0.032053705,0.084152266,0.044915199,0.029187664
1.224,0.022911262,0.032054107,0.084150383,0.044921367,0.029187129
1.228,0.022910523,0.032053470703124996,0.084149445,0.044927371093749995,0.029187129
1.232,0.022910055,0.032052330078124996,0.084149383,0.044933371,0.029187229
1.236,0.022911195,0.032052498046874996,0.08415025,0.04493877,0.029186088
1.24,0.022912268,0.032052330078124996,0.084148039,0.044943531249999995,0.029185585937499998
1.244,0.022913139,0.032052666,0.084146695,0.044949027343749996,0.029186054687499997
1.248,0.022913811,0.032053537109374995,0.084146359,0.044954797,0.029185886718749998
1.252,0.022913574,0.032053638671874995,0.084148141,0.044960664062499996,0.029184514
1.256,0.022914044921874998,0.032053873,0.084148977,0.044966027,0.029183037109374997
1.26,0.022914682,0.032055113,0.084147906,0.044971191,0.029182266
1.264,0.022915922,0.032056422,0.08414807,0.044975816,0.029183003906249998
1.268,0.022916559,0.032056824,0.084149281,0.044980176,0.029182466796874997
1.272,0.022916189,0.032056723,0.084150586,0.044984937499999995,0.029181460937499997
1.276,0.022916592,0.032057326,0.084151555,0.044990836,0.029181529296874998
1.28,0.022917195,0.032057392578124996,0.084151523,0.044996371,0.029184714843749997
1.284,0.022918201,0.032056891,0.084149312,0.045000426,0.02918525
1.288,0.022918671874999998,0.032057527343749996,0.084148344,0.045004016,0.029185117187499998
1.292,0.022918604,0.03205793,0.084149711,0.045009246,0.029184514
1.296,0.022918101562499998,0.032057695312499995,0.084150148,0.045014742,0.029183307
1.3,0.022918570312499997,0.03205793,0.084149812,0.045020176,0.029184244
1.304,0.022918369,0.032058734,0.084149383,0.045025707,0.029185553
1.308,0.022917834,0.032058869,0.084149477,0.045031136718749996,0.029184546874999998
1.312,0.022918438,0.032058398437499996,0.084150016,0.045036402,0.02918173
1.316,0.022919443,0.032057392578124996,0.084149578,0.045042137,0.029181596
1.32,0.02292008,0.032056857,0.084148578,0.04504827,0.029185553
1.324,0.022919576171874997,0.032058164,0.084147633,0.045053602,0.029187967
1.328,0.022919242187499998,0.032058434,0.084146125,0.045058227,0.029186759765624997
1.332,0.022918438,0.032058566406249996,0.084146734,0.045063055,0.029184144531249998
1.336,0.022917766,0.0320585,0.084146898,0.045067816406249996,0.029181328
1.34,0.022916592,0.032057729,0.084145625,0.045072878906249995,0.029181697265624997
1.344,0.022915988281249997,0.032056623046874996,0.084144883,0.045077809,0.029182334
1.348,0.022915822,0.032054912,0.084144516,0.045082066406249996,0.029182301
1.352,0.022916258,0.032054174,0.084144648,0.045086324,0.029181797
1.356,0.022915688,0.032053605468749996,0.084144516,0.04508998,0.029181093749999998
1.36,0.02291458,0.032054107,0.084143711,0.045094101562499996,0.029180857421874998
1.364,0.022913408,0.032054041,0.084143375,0.045097691,0.029181193
1.368,0.022912937499999998,0.032054509765624996,0.084144352,0.045101211,0.029181193
1.372,0.022912871,0.032054912,0.084146563,0.045105336,0.029180857421874998
1.376,0.022913307,0.03205508,0.084147969,0.045109191,0.029180623
1.38,0.022913775,0.032055146,0.084146797,0.045112777,0.029181562499999997
1.384,0.022914044921874998,0.032054777,0.084145688,0.045115996,0.029180053
1.388,0.022914012,0.032054041,0.084146594,0.045120055,0.029179584
1.392,0.02291324,0.032052867,0.084148273,0.045124781249999996,0.029178845703124998
1.396,0.022912971,0.03205327,0.084148813,0.04513048,0.029179550781249997
1.4,0.022912771,0.032053503906249996,0.084147336,0.045136078,0.02917965
1.404,0.022912468749999998,0.032052867,0.084145688,0.045141042968749996,0.02917935
1.408,0.022911295,0.032053336,0.084145594,0.045145469,0.029178544921874997
1.412,0.022911195,0.032054374999999996,0.084147,0.045150093749999995,0.029177305
1.416,0.022911061,0.032054542968749995,0.084147367,0.045154453,0.029176131
1.42,0.022911229,0.032054275,0.084146531,0.045158777,0.029177137
1.424,0.022911865,0.032053873,0.084145789,0.045163238,0.029176768
1.428,0.022910725,0.032053738,0.084146125,0.045167496093749995,0.029175158
1.432,0.022910256,0.032054342,0.084147164,0.045171383,0.029175326
1.436,0.022910892578124998,0.032055548828124995,0.084148406,0.045176914,0.029175695
1.44,0.022911061,0.032056053,0.084147805,0.04518134,0.029175428
1.444,0.022910223,0.032055314,0.084146969,0.045185969,0.029174824
1.448,0.022909754,0.032055951,0.084148641,0.045190730468749996,0.029175729
1.452,0.022910625,0.032056891,0.084150719,0.045195589843749995,0.029178812499999998
1.456,0.022911363,0.03205699,0.084151891,0.045201258,0.029179182
1.46,0.022913139,0.032057359,0.084151523,0.045206219,0.029177438
1.464,0.022914313,0.032056891,0.084151258,0.04521068,0.029178376953124998
1.468,0.022912333984374998,0.032054846,0.084152195,0.045215406,0.029182668
1.472,0.022910457031249998,0.032053503906249996,0.084154039,0.045220301,0.029184346
1.476,0.022910357,0.032054008,0.08415468,0.045224926,0.029184916
1.48,0.022911027343749998,0.032054777,0.084152359,0.045229320312499995,0.029183439453124998
1.484,0.022912402,0.032054678,0.08415032,0.045233848,0.029181460937499997
1.488,0.022912871,0.032053738,0.084150219,0.045239007812499996,0.029179685546874997
1.492,0.022913307,0.032053771,0.08415082,0.045244473,0.029179719
1.496,0.022913609374999998,0.032054846,0.084151086,0.045250508,0.029181964843749998
1.5,0.022913742,0.032054777,0.084149711,0.045256374999999995,0.029182334
1.504,0.022913910156249998,0.032054542968749995,0.084148977,0.045262547,0.029181863281249998
1.508,0.022913775,0.032054476562499996,0.084149148,0.045268582,0.029181797
1.512,0.022912033203124998,0.032054141,0.08415025,0.045274281,0.029182132812499997
1.516,0.022911529,0.032054509765624996,0.084150516,0.045280246,0.029183307
1.52,0.022910961,0.032054374999999996,0.084149984,0.045286718749999996,0.029183307
1.524,0.02291076,0.032053939,0.084150219,0.045292387,0.029183472656249997
1.528,0.022911127,0.032053873,0.084150992,0.045298016,0.029183574218749998
1.532,0.022910961,0.032053807,0.084152266,0.045303316406249995,0.029183508
1.536,0.02291143,0.032054342,0.084153438,0.045308980468749996,0.029183105468749998
1.54,0.022910725,0.03205508,0.084153836,0.045314781,0.029184949
1.544,0.022912468749999998,0.032056789,0.084154406,0.045320515624999995,0.029186021484374998
1.548,0.022913541,0.032056623046874996,0.084155016,0.045326516,0.029184514
1.552,0.022913877,0.03205632,0.084156016,0.045332516,0.029182736
1.556,0.022914982,0.032056924,0.08415568,0.045338754,0.0291824
1.56,0.022915754,0.032057461,0.084154273,0.045344453124999996,0.029182668
1.564,0.022916156,0.032057963,0.084153805,0.045349918,0.029180656
1.568,0.02291542,0.032058197,0.084154508,0.045355852,0.02917992
1.572,0.022914547,0.032057996,0.084156758,0.045362324,0.029182166
1.576,0.022913507812499997,0.032058434,0.084158094,0.045369097656249996,0.02918525
1.58,0.022913207,0.032058902,0.084157859,0.045375566,0.029186189453124997
1.584,0.022913408,0.032058969,0.084156953,0.045382273437499995,0.02918743
1.588,0.022913441,0.032059271,0.084156586,0.045389281249999996,0.029189408
1.592,0.022913742,0.032059539062499996,0.084157758,0.045396086,0.029191185546874998
1.596,0.022914012,0.032060176,0.084158867,0.045403359,0.02919115
1.6,0.022914781,0.032061887,0.084159273,0.045410402343749996,0.029190447
1.604,0.022913977,0.032063730468749996,0.084160313,0.045417578,0.029192123046874997
1.608,0.02291324,0.032064502,0.084162391,0.045424617187499995,0.029193398
1.612,0.022913643,0.0320644,0.084164805,0.045431828,0.029194605
1.616,0.022914682,0.032064938,0.084165305,0.045439066,0.029194705078124997
1.62,0.022915822,0.032065172,0.084163531,0.04544477,0.029194035
1.624,0.022915955078124998,0.03206507,0.084162992,0.045450301,0.029194168
1.628,0.02291485,0.032064601562499996,0.084163594,0.045457441,0.029193432
1.632,0.022914480468749998,0.032065037,0.084165609,0.045464348,0.029191822
1.636,0.022914715,0.032066111,0.084166312,0.045471391,0.029193095703124998
1.64,0.022914648437499997,0.032067117,0.084165406,0.045478629,0.029194035
1.644,0.022914213,0.032067721,0.084165508,0.045485707031249996,0.029195443
1.648,0.022914313,0.032068289,0.084166984,0.045493082,0.029196113281249998
1.652,0.022913307,0.032069664062499996,0.084169492,0.045500391,0.029197857421874997
1.656,0.022913408,0.032068961,0.084169664,0.045507363,0.029198996
1.66,0.022914145,0.032068792968749996,0.084168656,0.04551427,0.029200104
1.664,0.022915352,0.032070402,0.084168492,0.045521313,0.029200337890624997
1.668,0.022916492,0.032071039,0.084168359,0.045528652,0.029198059
1.672,0.022916023,0.032071039,0.084169797,0.045536199,0.029198461
1.676,0.022916224609374997,0.032071543,0.084171344,0.045543941406249996,0.029200304687499998
1.68,0.022915922,0.032071742,0.0841705,0.045551249999999995,0.02920007
1.684,0.022915889,0.032072615,0.084170164,0.045559031,0.029202047
1.688,0.022916156,0.032072381,0.084170805,0.045566574218749996,0.029202148
1.692,0.022916324,0.032071375,0.084171742,0.045574754,0.029202686
1.696,0.022917264,0.032071643,0.084173789,0.045583503906249996,0.029203187499999998
1.7,0.022917498,0.032072546874999996,0.084174188,0.045591988281249995,0.029204662109374998
1.704,0.022917465,0.032073553,0.084174086,0.045600168,0.029205835937499997
1.708,0.022916828,0.03207466,0.084174727,0.045608852,0.029205232421874998
1.712,0.022917363,0.032076336,0.084175664,0.045617132812499996,0.029206507812499997
1.716,0.022919074,0.032078215,0.084175766,0.045624746093749995,0.029207679687499998
1.72,0.022919005859374997,0.032079254,0.084175359,0.045632555,0.029207781
1.724,0.022918738,0.032079689,0.084174555,0.045640066,0.029208519531249998
1.728,0.022920414,0.032079521,0.084174461,0.045647273,0.029209658
1.732,0.022922627,0.032078984,0.08417432,0.045654082,0.029207445
1.736,0.022923566,0.032078146,0.084174227,0.045660953,0.029206943359374998
1.74,0.02292293,0.032077342,0.084173352,0.045667391,0.029206875
1.744,0.022922292968749997,0.032077342,0.084174023,0.045674097656249996,0.029208249999999998
1.748,0.022922695312499998,0.032078013671874996,0.084176,0.045680836,0.029208519531249998
1.752,0.022923197,0.032078783203124996,0.084176234,0.045687945,0.029206775
1.756,0.022922292968749997,0.032079152,0.084176133,0.045694816,0.029207211
1.76,0.022922292968749997,0.032079387,0.084176102,0.045701121,0.029208853515624997
1.764,0.022922092,0.032079387,0.084175734,0.045707156,0.029209523
1.768,0.022921857,0.032079152,0.084176203,0.045714094,0.029210898437499997
1.772,0.022921287,0.032079588,0.084178047,0.045721671874999995,0.029210463
1.776,0.022920951,0.032080527,0.084178984,0.045728781249999996,0.029210463
1.78,0.022920449,0.032081299,0.084177578,0.045735820312499995,0.029211033
1.784,0.022919846,0.032082037109374996,0.084178016,0.045744605,0.029213312499999998
1.788,0.022919041,0.032082203,0.084178852,0.045753758,0.029216900390624998
1.792,0.022918035,0.032082605,0.084179789,0.045762609,0.029216330078124998
1.796,0.022918604,0.032083176,0.084180828,0.045771695,0.02921415
1.8,0.022919744,0.032083746,0.084180258,0.045780445,0.029215056640624997
1.804,0.022919140624999997,0.032084686,0.084179523,0.04578866,0.02921452
1.808,0.022919207,0.032085455,0.084179586,0.045796640624999996,0.029213480468749997
1.812,0.022918604,0.032086193,0.084179453,0.045804719,0.029212811
1.816,0.0229179,0.032086563,0.084179922,0.045812836,0.029213648
1.82,0.022918604,0.032086126953124995,0.084178883,0.04582098,0.029215023437499998
1.824,0.022918604,0.032086629,0.084179484,0.045829766,0.029216162
1.828,0.022919005859374997,0.032087199,0.08418093,0.045837578,0.029216766
1.832,0.022919242187499998,0.032087467,0.084182641,0.045845055,0.029217002
1.836,0.022918671874999998,0.032088976562499996,0.084184516,0.045853,0.029219248
1.84,0.022919275,0.03209025,0.084183914,0.045861113,0.029218509765624998
1.844,0.022919375,0.032091054687499995,0.084183406,0.045868824,0.02921727
1.848,0.022918705,0.032092094,0.084184313,0.04587627,0.029217369140624998
1.852,0.022917632812499998,0.032092396,0.084185625,0.045883542968749996,0.029217102
1.856,0.022917297,0.032092564,0.084186227,0.045891355,0.029218443
1.86,0.022917598,0.032091961,0.084184281,0.045898027343749995,0.029218846
1.864,0.022917834,0.032092463,0.084183742,0.0459045,0.029219080078124997
1.868,0.022919342,0.032093535,0.08418525,0.045911773,0.029219816406249998
1.872,0.022919978515624998,0.032094173828124996,0.084186797,0.045918949,0.029217470703124998
1.876,0.022920582031249997,0.032095447,0.084187234,0.045925386718749996,0.029216162
1.88,0.022920951,0.032096789,0.084186297,0.045931757812499995,0.029217972656249997
1.884,0.022922158203124997,0.032097224609374995,0.084185922,0.045937824,0.029218744
1.888,0.022922259765624998,0.03209776,0.084188305,0.045944496093749995,0.029219717
1.892,0.022922158203124997,0.032097089843749996,0.084189344,0.045951203,0.029218912
1.896,0.022922461,0.032097191406249996,0.084188711,0.045957438,0.02921784
1.9,0.022922762,0.032098766,0.084187633,0.045964145,0.029219650390624997
1.904,0.022922863,0.032100711,0.084188406,0.045969910156249995,0.029221896
1.908,0.022923098,0.032101381,0.084188977,0.045975309,0.02922307
1.912,0.022923265624999998,0.032101449,0.084189109,0.045981878906249996,0.029221594
1.916,0.022923197,0.032101951,0.084189813,0.04598909,0.029222097656249998
1.92,0.022922461,0.032101684,0.084188469,0.045995996,0.029225182
1.924,0.022922627,0.032102053,0.084187703,0.046001996,0.029225818
1.928,0.022923464843749998,0.032102488,0.084188203,0.046008367187499996,0.02922441
1.932,0.022923768,0.032103191406249995,0.084188305,0.046014402,0.029222431640624998
1.936,0.022923365,0.032102990234374996,0.084188469,0.046020605468749996,0.029223807
1.94,0.022922795,0.032103124999999996,0.084188375,0.046026906,0.029223236
1.944,0.022921857,0.032103227,0.084187906,0.046032910156249995,0.029219281
1.948,0.02292199,0.032103963,0.084188102,0.046038711,0.029218342
1.952,0.022922023437499998,0.032104332,0.084189211,0.046045012,0.029221124999999997
1.956,0.022920951,0.032104633,0.08418975,0.046050645,0.029221962890624998
1.96,0.022921722656249997,0.032105104,0.084189313,0.046056176,0.029221091796874998
1.964,0.02292293,0.032105169921874996,0.084189211,0.046061844,0.029223271484374997
1.968,0.022924470703124998,0.032105506,0.084189883,0.046067543,0.02922565
1.972,0.022925377,0.032105975,0.084190484,0.046072641,0.029225148437499997
1.976,0.022925779,0.032106713,0.084190789,0.046077969,0.029224980468749998
1.98,0.022925746093749998,0.032106578,0.084189984,0.046083805,0.029226052734374997
1.984,0.022925175781249998,0.032105941,0.084189711,0.046088902343749995,0.029227460937499998
1.988,0.022925377,0.032106813,0.084190719,0.046093863,0.029227797
1.992,0.022925611328124998,0.03210698,0.08419193,0.046098355,0.029226523
1.996,0.022925275,0.032107617,0.084192398,0.046101941,0.02922565
2,0.022925611328124998,0.032108857,0.084192633,0.046106168,0.029226893
2.004,0.022926046874999998,0.032109529,0.084192063,0.046110324,0.029227126953124998
2.008,0.022925041015624998,0.032108959,0.084191891,0.046114012,0.029226893
2.012,0.022924941,0.032108893,0.084193063,0.046117867187499995,0.029226389
2.016,0.022926014,0.032109529,0.084193672,0.046122059,0.029225148437499997
2.02,0.02292635,0.032110602,0.084193063,0.04612548,0.029226523
2.024,0.022925712890624998,0.032110938,0.084193469,0.046128999999999996,0.029228064453124997
2.028,0.022924773,0.032110904,0.084194711,0.046133055,0.029226824
2.032,0.022925678,0.032111004,0.084194672,0.046136711,0.029228166015624998
2.036,0.022927455,0.032112145,0.084194336,0.046140531,0.029228535
2.04,0.022927623046874998,0.032113721,0.084193633,0.046143516,0.029227965
2.044,0.022929333984374998,0.032115564453124995,0.084194578,0.046146265624999995,0.029225148437499997
2.048,0.022929166,0.032115898,0.084196586,0.046149285,0.029224980468749998
2.052,0.02292826,0.032115126953124996,0.084196555,0.046153074,0.029226121093749998
2.056,0.022928361,0.032113854,0.084196187,0.046156457,0.029225449218749998
2.06,0.022928662109374998,0.032113586,0.08419518,0.046159176,0.029225316
2.064,0.022929166,0.032114121093749996,0.084195477,0.046162425781249995,0.029227227
2.068,0.022929166,0.032114793,0.084196953,0.046166383,0.029230244
2.072,0.022929333984374998,0.032115799,0.084197797,0.046170137,0.02923001
2.076,0.022930406,0.032116637,0.084197086,0.04617309,0.029227965
2.08,0.022929736,0.032117039,0.084195984,0.046176039,0.029228064453124997
2.084,0.022929232421874998,0.03211848,0.084196555,0.046179289,0.029229674
2.088,0.022929467,0.03211915,0.084198734,0.046182578,0.02923068
2.092,0.022929667968749998,0.032119688,0.084200539,0.046185797,0.029227965
2.096,0.022929367187499997,0.032121063,0.08420007,0.046189113,0.029226893
2.1,0.022930004,0.032122738,0.0841995,0.046192199,0.029229070312499997
2.104,0.022929031,0.032122807,0.084200273,0.046195215,0.029232021
2.108,0.02292759,0.03212227,0.084201383,0.046198199,0.029231955
2.112,0.022927623046874998,0.032121398,0.084201109,0.046201352,0.029230345703124997
2.116,0.022927623046874998,0.032120393,0.084199836,0.046203832031249996,0.029229541
2.12,0.02292702,0.032120795,0.084198898,0.046205813,0.029229674
2.124,0.022927557,0.032121330078124996,0.084198664,0.046207921874999995,0.029230177734374998
2.128,0.022927623046874998,0.032121599609374996,0.084198602,0.046210406249999995,0.029231418
2.132,0.022928328124999998,0.032122068,0.084199438,0.046212484374999994,0.029229339843749997
2.136,0.022929333984374998,0.03212257,0.084199875,0.046214563,0.029230949
2.14,0.022929971,0.032122638671874995,0.084199438,0.046216707,0.029231484
2.144,0.022930641,0.03212257,0.084199406,0.046218551,0.029232055
2.148,0.022930707,0.032123107,0.084200211,0.046221,0.029233195312499998
2.152,0.022930842,0.032123443,0.084201484,0.046223312499999995,0.029231988
2.156,0.022931076,0.032123242,0.084201109,0.046224789,0.02923343
2.16,0.022932283,0.032123813,0.084201109,0.04622784,0.029237789
2.164,0.022932586,0.032124549,0.084200875,0.046230554687499995,0.029239197
2.168,0.022931613,0.032124615,0.084201852,0.046232499999999996,0.029236714843749997
2.172,0.022930775390624998,0.032125018,0.084203695,0.046235887,0.029236582
2.176,0.022931277,0.03212626,0.084203898,0.046238703124999996,0.029236916
2.18,0.022931914,0.032126695,0.084202383,0.046240445312499996,0.029236916
2.184,0.022932553,0.03212693,0.084201648,0.046241785,0.029236949
2.188,0.022932316,0.032126896,0.084201883,0.04624373,0.029235441
2.192,0.022932418,0.032126695,0.084201852,0.046246211,0.029235777343749998
2.196,0.022932484,0.032126963,0.084202555,0.046248793,0.029238795
2.2,0.022932384765624998,0.032127499999999996,0.08420225,0.046251007812499995,0.029240203
2.204,0.022933625,0.032128673828124996,0.08420225,0.04625332,0.029241041
2.208,0.022933424,0.032128875,0.084202086,0.046254629,0.029238225
2.212,0.022934094,0.032127969,0.084201719,0.046255363281249996,0.029236078
2.216,0.022933523,0.032127266,0.084201414,0.046256003906249996,0.029237789
2.22,0.022933021,0.032127701,0.084201781,0.046256809,0.029238357
2.224,0.022933457,0.032128539062499996,0.084203359,0.046258281,0.029239029
2.228,0.022934027,0.032128605,0.084205102,0.046258953124999995,0.029239363
2.232,0.02293443,0.032128338,0.084204797,0.046259054687499995,0.029238895
2.236,0.022934496,0.032127834,0.084203797,0.046259488,0.029236246093749998
2.24,0.022933255859374998,0.032127969,0.084203898,0.046259656249999996,0.029235943
2.244,0.022933523,0.032128605,0.084204563,0.046260863281249995,0.029236883
2.248,0.022933457,0.032128707,0.08420557,0.046263242,0.029237889
2.252,0.022933691406249998,0.03212874,0.084207516,0.046265089843749996,0.029237386718749998
2.256,0.022933424,0.032128404296874996,0.084206977,0.046265391,0.029236111328124998
2.26,0.022933523,0.032128236,0.084205508,0.046265492,0.029237822265624998
2.264,0.022933960937499998,0.03212817,0.084204469,0.046266461,0.029238693359374998
2.268,0.022935334,0.032128404296874996,0.084204836,0.046268140624999995,0.029236714843749997
2.272,0.022934865234374997,0.032129544921874996,0.084205469,0.046269313,0.029234703124999997
2.276,0.022935133,0.032131322,0.084205773,0.046269984374999996,0.029232994
2.28,0.022935201,0.032132797,0.084205641,0.046270887,0.029232994
2.284,0.022935,0.032132965,0.084205,0.046271594,0.029233363281249997
2.288,0.022933994,0.032132227,0.084204664,0.046272164062499996,0.029232156
2.292,0.022933793,0.032130887,0.08420507,0.046273402,0.029232256
2.296,0.022934027,0.032130752,0.084205875,0.046274441,0.029234201171874998
2.3,0.022934598,0.032131623,0.084206844,0.046275046874999996,0.029236883
2.304,0.022935267578124998,0.032132395,0.084208156,0.046276621,0.029238257812499998
2.308,0.022936006,0.032132227,0.084208391,0.046277996093749996,0.029234301
2.312,0.022935066,0.032131254,0.084207414,0.046278097656249996,0.029229406
2.316,0.02293376,0.032131724609374995,0.084206742,0.046279136718749996,0.029232691406249997
2.32,0.022933793,0.032131724609374995,0.084205102,0.046280277343749995,0.029235105468749998
2.324,0.022932184,0.032131188,0.084203055,0.046281551,0.029235174
2.328,0.022931646,0.032131589843749996,0.084203625,0.046282621,0.029234871
2.332,0.022931982,0.032132662,0.084204969,0.046283996093749995,0.029234132812499997
2.336,0.022932988,0.032132629,0.084205031,0.046284800781249996,0.029231988
2.34,0.022934195,0.032133634765624995,0.084205203,0.046285742,0.029234604
2.344,0.02293443,0.032134842,0.084206242,0.046286914,0.029236714843749997
2.348,0.02293292,0.032134977,0.084206578,0.046286914,0.029235207
2.352,0.022931949218749997,0.032135178,0.08420725,0.046287215,0.029235039
2.356,0.02293215,0.032135178,0.084207211,0.046288355,0.029237352
2.36,0.022931848,0.032135848,0.084206977,0.046289531249999995,0.029237588
2.364,0.022932082,0.032135478515624996,0.084206641,0.046290738,0.029237018
2.368,0.022933189,0.03213501,0.084206641,0.04629218,0.029236012
2.372,0.022932652,0.032133466796874996,0.084207047,0.046293719,0.029234703124999997
2.376,0.022931109374999998,0.032132863,0.08420718,0.046294625,0.029233027
2.38,0.022930673828124998,0.032134172,0.084206477,0.046295398437499996,0.029231586
2.384,0.022931881,0.03213501,0.084207352,0.046296469,0.029232826
2.388,0.022932016,0.032133971,0.084207922,0.046296535,0.029232759765624998
2.392,0.022930977,0.032133031,0.08420832,0.046297207031249996,0.029233162
2.396,0.022930172,0.032132562499999996,0.084208187,0.046298648,0.029234637
2.4,0.022929902,0.032133133,0.084207688,0.046299320312499996,0.029233664062499998
2.404,0.022931076,0.032132395,0.084207078,0.046299723,0.029234973
2.408,0.022931848,0.032131121,0.084206914,0.046300460937499996,0.029236111328124998
2.412,0.022932351562499998,0.032131791,0.084207648,0.046301633,0.029234099609374998
2.416,0.022931748,0.03213149,0.084206914,0.046303008,0.029236380859374998
2.42,0.022931345703124998,0.032130449218749996,0.084205406,0.046303945,0.029236883
2.424,0.022932184,0.032130047,0.084204633,0.046304484374999996,0.029235105468749998
2.428,0.022932754,0.032129511718749997,0.084204797,0.046305121,0.029234502
2.432,0.022931547,0.032129143,0.084205367,0.046306460937499995,0.029233932
2.436,0.022931512,0.032129813,0.084205336,0.046307535156249996,0.029232725
2.44,0.022930977,0.032129679687499996,0.084204867,0.046308137,0.029232156
2.444,0.022929568,0.032129712890624995,0.084206109,0.046309746,0.029233295
2.448,0.022928796874999997,0.032129511718749997,0.084207719,0.046311355468749996,0.029235006
2.452,0.02292873,0.032129311,0.084209297,0.046312832,0.029235508
2.456,0.022928596,0.032129479,0.084209531,0.046314238281249996,0.029235138671874997
2.46,0.022928127,0.032129712890624995,0.084208086,0.046314809,0.029233295
2.464,0.022927992,0.032129410156249996,0.084206742,0.046314977,0.029233195312499998
2.468,0.022929166,0.032129712890624995,0.08420725,0.046315648437499995,0.029234837890624997
2.472,0.022929667968749998,0.032130887,0.084208922,0.046316184,0.029235207
2.476,0.022930406,0.032131893,0.084208016,0.046316184,0.029233529296874998
2.48,0.022930673828124998,0.032131959,0.084206641,0.046316352,0.029235105468749998
2.484,0.022929299,0.032131289,0.084206742,0.046316887,0.029235207
2.488,0.022928058593749998,0.032130752,0.084208656,0.046317523,0.029234334
2.492,0.02292816,0.032131188,0.084211102,0.046318531249999996,0.029237453
2.496,0.022929064,0.032130887,0.084211609,0.046319066,0.029236949
2.5,0.022928896,0.032130283,0.084210836,0.046319703,0.029237419921874997
2.504,0.022928395,0.032130818,0.084211336,0.046321012,0.029238861328124997
2.508,0.02292883,0.032131455078124996,0.084211,0.046321449,0.029236514
2.512,0.022929434,0.03213226,0.084210805,0.046321715,0.029236414062499997
2.516,0.022929971,0.032132797,0.084210664,0.046322890624999995,0.029235039
2.52,0.022929836,0.032133703124999996,0.084210969,0.046323559,0.029234938
2.524,0.022928796874999997,0.032133133,0.084210664,0.0463245,0.029235708984374997
2.528,0.022928127,0.032133031,0.08421107,0.046325773437499995,0.029235072
2.532,0.022929166,0.032132898,0.084211406,0.046326644531249996,0.029233529296874998
2.536,0.022929938,0.032131724609374995,0.084210766,0.046327652,0.029232658203124998
2.54,0.022929166,0.032131791,0.084209156,0.04632775,0.029234301
2.544,0.022928998,0.032132328,0.08420882,0.046328355,0.029235877
2.548,0.022929467,0.032132460937499996,0.084209828,0.046329796874999996,0.029236783
2.552,0.022928896,0.03213283,0.084210766,0.046330667968749996,0.029234837890624997
2.556,0.022928328124999998,0.032133668,0.084210766,0.04633134,0.029234771484374998
2.56,0.022929064,0.03213377,0.084210063,0.046331910156249996,0.029237486
2.564,0.022929836,0.032132797,0.084208727,0.046331305,0.029237720703124997
2.568,0.022929836,0.032132127,0.084208859,0.046331605468749995,0.029237285156249997
2.572,0.0229295,0.032131992,0.084209563,0.04633248,0.029235643
2.576,0.022930004,0.03213065,0.084208789,0.046333449218749996,0.029235508
2.58,0.022930004,0.032129813,0.084207547,0.046333921874999996,0.02923618
2.584,0.022929133,0.032129176,0.084206977,0.04633402,0.029237990234374997
2.588,0.022928226562499997,0.03212817,0.084207312,0.046334121,0.02923752
2.592,0.022928563,0.032128404296874996,0.084207984,0.046334824,0.02923249
2.596,0.022929701,0.032129544921874996,0.084207922,0.046335796874999995,0.029231316
2.6,0.022930707,0.032129544921874996,0.084207148,0.046336031,0.029230982
2.604,0.022931311,0.032129377,0.084207688,0.046336266,0.029232357421874997
2.608,0.022930506,0.032129277,0.084208992,0.046336937499999994,0.029232826
2.612,0.02293101,0.032129813,0.084209961,0.046337808593749995,0.029231719
2.616,0.022932082,0.032130685546874996,0.084210133,0.046338348,0.029232457
2.62,0.022931210937499998,0.032132059,0.084210234,0.04633875,0.029233195312499998
2.624,0.022931076,0.032133301,0.084211,0.046338816,0.029232523437499998
2.628,0.022932115234374998,0.032134373,0.084211141,0.046338984374999996,0.029232893
2.632,0.02293349,0.032135511718749996,0.084211672,0.046339484,0.02923125
2.636,0.022933523,0.032135379,0.084212445,0.046339855468749996,0.02923192
2.64,0.022934027,0.03213568,0.084212375,0.046340324,0.02923457
2.644,0.022933826171874998,0.032135511718749996,0.084213281,0.046340960937499995,0.029233664062499998
2.648,0.022931982,0.032134205,0.084212711,0.046340762,0.029232658203124998
2.652,0.022932316,0.032133803,0.084213016,0.046340859374999994,0.029231351562499997
2.656,0.022932553,0.03213434,0.084212109,0.046340960937499995,0.029231854
2.66,0.022931982,0.032134406,0.084209563,0.046340727,0.029230511718749998
2.664,0.022931244140624998,0.032133904,0.084208492,0.046340324,0.029227662
2.668,0.022930004,0.032133736328124995,0.084210867,0.046340792968749996,0.029227126953124998
2.672,0.022928293,0.032133064,0.084212109,0.046341496,0.029228535
2.676,0.022927891,0.032132932,0.084210164,0.046341898,0.029230982
2.68,0.022927824,0.032133601562499996,0.084209094,0.046342535156249996,0.029231854
2.684,0.022927455,0.032133836,0.084208859,0.046342804687499996,0.02923115
2.688,0.022926449,0.03213434,0.08420943,0.046343273,0.02923182
2.692,0.022925879,0.032133938,0.084209258,0.046343977,0.029230479
2.696,0.022924707031249998,0.032133466796874996,0.084208523,0.046344449,0.02923001
2.7,0.022923599609374998,0.032133736328124995,0.084207078,0.046345051,0.029230814
2.704,0.022923801,0.032134004,0.084206109,0.046345789,0.029230177734374998
2.708,0.022924002,0.0321334,0.084206844,0.046345855468749995,0.029229574
2.712,0.022924470703124998,0.032132998,0.084206945,0.046346594,0.02922991
2.716,0.022925443,0.03213283,0.084206039,0.046347265624999995,0.029229439
2.72,0.022925175781249998,0.032132193,0.084206039,0.046348102,0.029227998
2.724,0.022924169921874998,0.032131656,0.084206945,0.046348941,0.029226992
2.728,0.022923834,0.032130718749999995,0.084208117,0.046349878906249996,0.02922726
2.732,0.022924404,0.032130148,0.084208961,0.046350383,0.029228904
2.736,0.02292427,0.032130550781249996,0.08420943,0.046351152,0.029229171874999998
2.74,0.022922963,0.032131322,0.084208055,0.046353031249999996,0.029230814
2.744,0.022922059,0.032131322,0.084206609,0.046353633,0.029229674
2.748,0.022921455,0.032130316,0.084206844,0.046354137,0.029228803
2.752,0.022921287,0.032129209,0.084208555,0.046355715,0.029229139
2.756,0.022921656,0.032129813,0.084208992,0.04635759,0.029227965
2.76,0.022921621,0.032131121,0.084209766,0.046358227,0.029227697265624998
2.764,0.022923064,0.032132395,0.084210602,0.046359266,0.029227932
2.768,0.022923365,0.03213092,0.084209594,0.046359835937499996,0.029229205078124997
2.772,0.022924707031249998,0.032130047,0.084209563,0.046360273437499995,0.029227763671874997
2.776,0.022925209,0.03213092,0.084209625,0.046361512,0.029225148437499997
2.78,0.022923701171874998,0.032130785,0.084208758,0.046362285156249995,0.029224209
2.784,0.022922461,0.032130014,0.084208492,0.046362386718749996,0.029224611328124997
2.788,0.022921253906249998,0.032129242,0.084209094,0.046361914062499995,0.029224512
2.792,0.022920816,0.032128639,0.084209828,0.046362453,0.029224544921874998
2.796,0.02292075,0.032130182,0.084211508,0.046363996,0.029225583984374998
2.8,0.022920615,0.032132127,0.084212914,0.046365703,0.029225685546874998
2.804,0.022920615,0.032131421874999996,0.084210938,0.046366308593749996,0.029221191
2.808,0.022920918,0.032129578124999995,0.084207047,0.046365269531249996,0.029217369140624998
2.812,0.02292065,0.032129544921874996,0.084207383,0.046364898437499996,0.02921918
2.816,0.022921253906249998,0.032129041,0.084207445,0.046365203,0.029221627
2.82,0.022920414,0.032127801,0.084206406,0.046365805,0.029222633
2.824,0.022920281,0.032127467,0.084206406,0.046366543,0.029224242
2.828,0.022920314,0.032128605,0.084208656,0.046368218749999995,0.029225383
2.832,0.022919309,0.032129143,0.084210906,0.046369828,0.029223605
2.836,0.0229179,0.032129109,0.084210766,0.046371472656249996,0.029222398437499998
2.84,0.022916828,0.032129377,0.084208391,0.046372242187499996,0.029222299
2.844,0.022916357,0.032129143,0.084207312,0.04637157,0.02922535
2.848,0.022917095703124998,0.03212884,0.084207648,0.046371438,0.029224578124999998
2.852,0.022918035,0.032128473,0.084207922,0.046370766,0.029222299
2.856,0.022918705,0.032127734,0.08420782,0.04636966,0.029220419921874997
2.86,0.022918201,0.032126560546874995,0.084206312,0.046369359374999995,0.029220354
2.864,0.022918068,0.032126494140624996,0.084206508,0.046369089843749996,0.029220990234374997
2.868,0.022918303,0.032126425781249995,0.084208352,0.04636966,0.02922193
2.872,0.022917834,0.032125689,0.08421043,0.046370266,0.029221863
2.876,0.022919005859374997,0.032126359374999996,0.084211742,0.046370398437499995,0.029220789
2.88,0.022920047,0.032125924,0.084210336,0.046369863,0.029218945312499998
2.884,0.022919744,0.032125822,0.08421,0.046369292968749996,0.029215927734374997
2.888,0.022919174,0.032126662109374995,0.08421043,0.046368453,0.029215023437499998
2.892,0.022918570312499997,0.032127566406249995,0.084210734,0.046368352,0.029215894531249998
2.896,0.022918402343749998,0.032128236,0.084211609,0.046368421874999996,0.029216498046874997
2.9,0.022918135,0.032129209,0.084211844,0.046368421874999996,0.029217906249999998
2.904,0.022918570312499997,0.032129578124999995,0.084210398,0.046368386718749995,0.029216834
2.908,0.022919140624999997,0.032129881,0.084210031,0.046367281249999996,0.029213582031249997
2.912,0.02291884,0.032130283,0.084211172,0.046366476562499995,0.029212474609374997
2.916,0.022918939,0.032129881,0.084211305,0.046366039062499996,0.029213648
2.92,0.022918504,0.032129143,0.08421057,0.046365871,0.029213984374999998
2.924,0.022917195,0.032129109,0.084210195,0.04636557,0.029213414
2.928,0.022916492,0.032128908,0.084211469,0.046365469,0.029214219
2.932,0.022916291,0.032128639,0.084213617,0.046366207031249995,0.029216398
2.936,0.022916258,0.032127768,0.084214055,0.046366308593749996,0.02921499
2.94,0.022916426,0.032127365,0.084213016,0.046365973,0.029212978515624998
2.944,0.022916189,0.0321276,0.084212344,0.046365805,0.029213011718749998
2.948,0.022915285,0.032127869,0.084212609,0.046365937499999996,0.029212910156249997
2.952,0.022914816,0.032127633,0.084213516,0.046365973,0.029210898437499997
2.956,0.022914078124999997,0.032127801,0.084212547,0.046366609,0.029209691
2.96,0.022913709,0.032128605,0.084210867,0.046366844,0.029210396484374998
2.964,0.022913139,0.032128539062499996,0.084211172,0.046366476562499995,0.029209390624999998
2.968,0.02291143,0.032127869,0.084212578,0.046365301,0.029208820312499998
2.972,0.022910892578124998,0.032126729,0.084213922,0.046365234374999995,0.029210396484374998
2.976,0.022910859,0.032126695,0.084213453,0.046365301,0.029211904296874997
2.98,0.022911061,0.032125588,0.084212078,0.046365402,0.029213044921874997
2.984,0.022911865,0.032125119,0.084210703,0.046365535,0.029212174
2.988,0.022911766,0.032124717,0.084210266,0.046365672,0.029213111
2.992,0.022911363,0.032124582,0.084211172,0.046366976562499995,0.029213345703124997
2.996,0.02291173,0.032123846,0.084209391,0.046367179687499996,0.029211468749999997
3,0.022910826,0.032123813,0.084209156,0.046366207031249995,0.029209826171874998
3.004,0.022911061,0.032124852,0.084211375,0.046365367,0.029207043
3.008,0.022910457031249998,0.032123912,0.084210398,0.046365035,0.02920815
3.012,0.022908379,0.032122068,0.084207516,0.046365269531249996,0.029214822
3.016,0.022908211,0.032122437499999996,0.084207484,0.046366574,0.029217771
3.02,0.022907908,0.032123813,0.084209695,0.046367179687499996,0.029217705
3.024,0.022908412109374998,0.032125018,0.08421043,0.046366945,0.029217168
3.028,0.022909283,0.032125488281249996,0.08421043,0.046366609,0.029216801
3.032,0.022909417968749998,0.032125689,0.084209828,0.046365973,0.029214486328124997
3.036,0.022909352,0.032125924,0.08420882,0.046365402,0.02921167
3.04,0.022909082,0.032125891,0.084209461,0.046365335937499995,0.029212777
3.044,0.022908914,0.032126293,0.084210703,0.046365703,0.029214721
3.048,0.022909352,0.032126527343749996,0.084211203,0.046365367,0.02921442
3.052,0.022910424,0.032127869,0.084211844,0.046364801,0.029212139
3.056,0.022909484,0.032128137,0.084211203,0.046363559,0.029211938
3.06,0.022908412109374998,0.032127801,0.084210336,0.046362719,0.029212777
3.064,0.022908346,0.032127332,0.084211773,0.046362789,0.029213514
3.068,0.022908310546874998,0.032125857,0.084212984,0.046362453,0.029213480468749997
3.072,0.022908346,0.032125053,0.084214258,0.046361414062499995,0.029213514
3.076,0.022908211,0.032124248,0.084214391,0.046359835937499996,0.029213279
3.08,0.022907874999999998,0.032124515624999996,0.08421318,0.046359168,0.029213648
3.084,0.022908781,0.032125419921874995,0.084213453,0.046358598,0.029215426
3.088,0.022909686,0.032124783,0.084214086,0.046357890624999995,0.029212844
3.092,0.022909686,0.032124281,0.084214289,0.046357355,0.029211435546874998
3.096,0.022909552734374998,0.032124582,0.084213852,0.046356988,0.029212039
3.1,0.022908982421874998,0.032125053,0.084212578,0.046356281,0.029212876953124998
3.104,0.022908379,0.032126359374999996,0.084212516,0.046355144531249996,0.029212777
3.108,0.022908512,0.032127299,0.084213219,0.046353800781249996,0.029210094
3.112,0.02290925,0.032127365,0.084213016,0.046353535,0.029209558593749997
3.116,0.022908310546874998,0.032126996,0.084212516,0.046352563,0.029209189
3.12,0.022907439453124998,0.032126795,0.084212414,0.046352058593749995,0.029208519531249998
3.124,0.022908379,0.032127633,0.084213281,0.046352563,0.029209357
3.128,0.022908009765624997,0.032126795,0.08421275,0.046353097656249995,0.029214285
3.132,0.022906602,0.032124582,0.084211438,0.046353566,0.029216732
3.136,0.022904488,0.032125419921874995,0.084213516,0.046354539,0.029219615
3.14,0.022903148,0.032127098,0.084215594,0.046355914062499996,0.029221494
3.144,0.022902611,0.032127332,0.084214758,0.046356047,0.029216900390624998
3.148,0.022902677734374998,0.032126627,0.084215227,0.046356082031249995,0.029213916015624997
3.152,0.022902511718749997,0.032125924,0.08421543,0.046357086,0.029212508
3.156,0.02290298,0.032125086,0.084214086,0.046357019531249995,0.029212039
3.16,0.022903014,0.032124549,0.084212781,0.046356953124999996,0.029214721
3.164,0.02290298,0.032125219,0.084213516,0.046357254,0.029216498046874997
3.168,0.022902343749999998,0.032126594,0.084214891,0.046357422,0.029215559
3.172,0.022902143,0.032126963,0.084217203,0.046357523,0.029214789
3.176,0.022900332031249998,0.032127029,0.084217273,0.046357890624999995,0.02921452
3.18,0.022898119,0.032126023,0.084215492,0.046358261718749995,0.029214587890624998
3.184,0.022897113,0.032124951,0.084216031,0.046359199,0.029216398
3.188,0.022898086,0.032124684,0.084217945,0.046360105468749996,0.029215927734374997
3.192,0.022899761718749998,0.032125086,0.084218914,0.046360609,0.029213044921874997
3.196,0.022901236328124998,0.032125152,0.084218383,0.04636148,0.029213547
3.2,0.022900800781249998,0.032125287,0.084218812,0.046362922,0.029216766
3.204,0.022899293,0.032124852,0.084219047,0.046363191,0.029217906249999998
3.208,0.022897549,0.032125119,0.084218812,0.046362586,0.02921623
3.212,0.022896207031249997,0.032125287,0.084219617,0.046363023,0.029214921874999997
3.216,0.022896945,0.032125287,0.084219992,0.046363996,0.029216699
3.22,0.022898755859374998,0.032125891,0.084219219,0.046364964843749995,0.029217638671874997
3.224,0.022900230468749998,0.032126359374999996,0.084218883,0.046365871,0.029216564
3.228,0.0229006,0.032126023,0.084219617,0.046366777,0.02921499
3.232,0.022900029,0.032126191,0.084219422,0.046367449218749995,0.029212709
3.236,0.022899729,0.032126293,0.084218945,0.046368285,0.029211570312499997
3.24,0.022898822,0.032125689,0.084218281,0.046368656,0.029212876953124998
3.244,0.022897984,0.032124984,0.084218414,0.04636993,0.029214789
3.248,0.022897918,0.032125455,0.084219992,0.046370836,0.029213615
3.252,0.022898053,0.032126359374999996,0.084220797,0.046371773,0.029211838
3.256,0.022897314453124998,0.032125857,0.084219555,0.046373348,0.029212306640624998
3.26,0.022897414,0.032125186,0.084218445,0.046374656,0.029210966796874998
3.264,0.022898488,0.032125419921874995,0.084219422,0.04637566,0.02921318
3.268,0.022898254,0.032125621,0.084220125,0.046376367187499996,0.029216264
3.272,0.022896543,0.032125588,0.08422032,0.04637677,0.029215056640624997
3.276,0.022896744140624998,0.032126560546874995,0.084220023,0.04637734,0.029212105
3.28,0.022897047,0.03212626,0.084217906,0.046377641,0.029210564453124997
3.284,0.022896375,0.032125353515624996,0.084217477,0.046378043,0.029211938
3.288,0.022896207031249997,0.03212532,0.084218344,0.046379184,0.029214654
3.292,0.022897179687499998,0.032124918,0.084218477,0.046380289062499996,0.02921415
3.296,0.022897482,0.032124549,0.084218812,0.046380926,0.029213213
3.3,0.022897984,0.032124615,0.084218945,0.046381195,0.029215123
3.304,0.022897449218749998,0.032124515624999996,0.084219688,0.046381832,0.02921576
3.308,0.022896711,0.03212475,0.084221297,0.046383039,0.029215961
3.312,0.022895973,0.032125455,0.08422257,0.046384816,0.029217939453124998
3.316,0.022895805,0.032126023,0.084221734,0.046386355,0.029219214843749997
3.32,0.022895537,0.032125419921874995,0.084220086,0.046386558593749995,0.02921784
3.324,0.022895873046874998,0.032125756,0.084220023,0.046386727,0.029216432
3.328,0.022896477,0.032126425781249995,0.084221266,0.04638773,0.029217303
3.332,0.022897449218749998,0.032127299,0.084222539,0.046389242,0.029216766
3.336,0.022897717,0.03212693,0.084221227,0.046390145,0.029213615
3.34,0.022896711,0.032127098,0.084220492,0.046391285156249996,0.029212978515624998
3.344,0.02289557,0.032127266,0.084219688,0.046391621093749995,0.029214553
3.348,0.022894465,0.032126662109374995,0.084220492,0.046391453124999996,0.029213213
3.352,0.022894296874999998,0.032126191,0.084221359,0.046392023,0.029212541
3.356,0.022894465,0.032126359374999996,0.084220555,0.046392793,0.029213547
3.36,0.022895068,0.032126425781249995,0.08421932,0.046393195312499996,0.029213882812499998
3.364,0.022895236,0.03212693,0.084219148,0.046393098,0.029216766
3.368,0.022896141,0.032128137,0.084219719,0.046393434,0.029215559
3.372,0.022896878906249998,0.03212874,0.084220023,0.046394973,0.029212273
3.376,0.022895906,0.032127936,0.084218141,0.046396047,0.029212072
3.38,0.022894396,0.032126795,0.084215867,0.046396816,0.029211736328124998
3.384,0.022892654,0.032126863,0.084215563,0.046397289,0.029209625
3.388,0.022892051,0.032127029,0.084216805,0.046398023,0.029209724609374998
3.392,0.022891144531249998,0.032127936,0.084218383,0.046399367,0.029210966796874998
3.396,0.022890273,0.032128473,0.084217844,0.046400371,0.029213447265624998
3.4,0.022890240234374998,0.032128271,0.084217203,0.046399867,0.029214453124999998
3.404,0.022892184,0.032127936,0.084217203,0.046398828,0.029214050781249997
3.408,0.022893357,0.032127299,0.084218109,0.046399199,0.02921576
3.412,0.022892855468749997,0.032126662109374995,0.084218617,0.046399969,0.029217168
3.416,0.02289242,0.032125957,0.084217773,0.046399937499999995,0.029216666
3.42,0.022892117187499998,0.032126293,0.084217437,0.046400508,0.029217939453124998
3.424,0.022891883,0.032126527343749996,0.084218078,0.046401043,0.029217638671874997
3.428,0.022892184,0.032125455,0.08421875,0.046400808593749995,0.029214084
3.432,0.022891380859374998,0.032124416,0.084218414,0.046400605468749995,0.029214553
3.436,0.02289091,0.03212418,0.084216906,0.046400773,0.029213916015624997
3.44,0.022891781,0.03212475,0.084216734,0.046401410156249996,0.029213279
3.444,0.022891547,0.032124449,0.084217273,0.046401410156249996,0.029213748046874998
3.448,0.022889938,0.032123945,0.084218141,0.046401043,0.02921415
3.452,0.022889637,0.032124684,0.084218617,0.046400910156249996,0.029214822
3.456,0.022890240234374998,0.032126627,0.084218984,0.046401511718749996,0.029216498046874997
3.46,0.022891012,0.032127365,0.084217875,0.046401613,0.029217236
3.464,0.022890742,0.032127131,0.084216734,0.046401813,0.029216900390624998
3.468,0.022890708984374997,0.032126594,0.084217273,0.046402148,0.029216732
3.472,0.022891547,0.032125521484374996,0.084217539,0.046402652343749996,0.029213078
3.476,0.022892453,0.032124615,0.084217477,0.046402383,0.02921224
3.48,0.022892251953124998,0.032124215,0.084217742,0.046402016,0.029215593749999998
3.484,0.022891781,0.032123678,0.084218047,0.046401914,0.029216162
3.488,0.022891078,0.032124449,0.084218781,0.046402852,0.029215324218749998
3.492,0.022891111328124998,0.032125152,0.084219352,0.046403523,0.029213078
3.496,0.022891781,0.032125891,0.084218617,0.046403757812499995,0.029214186
3.5,0.02289309,0.032126896,0.08421868,0.046404059,0.029217236
3.504,0.02289309,0.032128104,0.08421925,0.046404695,0.029218879
3.508,0.022893189,0.032128137,0.084220055,0.04640443,0.029216398
3.512,0.022892889,0.032127533203124996,0.084219219,0.046403960937499995,0.029212811
3.516,0.022891279296874997,0.03212723,0.084217336,0.046403421874999996,0.029210966796874998
3.52,0.022890207,0.032126425781249995,0.084216164,0.04640302,0.029207949218749998
3.524,0.022889268,0.032125455,0.084216773,0.046403656,0.029209423828124997
3.528,0.022889904,0.032125152,0.084217273,0.046402852,0.029209558593749997
3.532,0.022890174,0.032125386718749996,0.084217172,0.046402215,0.029206875
3.536,0.022890675781249998,0.032125588,0.084217008,0.046402586,0.029207244140624998
3.54,0.022891681640624998,0.032125689,0.084215398,0.046403421874999996,0.029207145
3.544,0.022892251953124998,0.032124951,0.084214125,0.046402352,0.029206139
3.548,0.022892018,0.032124449,0.08421375,0.046400640624999996,0.029207043
3.552,0.022891045,0.032124582,0.084215195,0.046400172,0.029207111
3.556,0.022890708984374997,0.032125119,0.084214594,0.046400910156249996,0.029208016
3.56,0.022888932,0.032125086,0.08421157,0.046400406,0.029206775
3.564,0.022886719,0.032124449,0.084211977,0.046400305,0.029207847656249997
3.568,0.022887926,0.032125186,0.084212844,0.046400742187499996,0.029208117
3.572,0.022889,0.032125053,0.084210266,0.046400473,0.029204361328124998
3.576,0.022888598,0.032124482421874996,0.084206508,0.046399301,0.029202349609374997
3.58,0.022887893,0.032125555,0.084206312,0.04639923,0.029202014
3.584,0.022887156,0.032125353515624996,0.084206078,0.04639923,0.029199599609374998
3.588,0.022885412,0.032124047,0.084205305,0.046399164,0.029199131
3.592,0.022885379,0.032125053,0.084208727,0.04640034,0.029201041
3.596,0.022885277,0.032124615,0.084207719,0.046400910156249996,0.02920084
3.6,0.022885914,0.032124482421874996,0.084205469,0.046401109,0.029200941
3.604,0.022886652343749998,0.032124515624999996,0.084206039,0.046400437499999996,0.029202248046874997
3.608,0.022886753906249998,0.032124615,0.084206914,0.046400406,0.029203154
3.612,0.022887691,0.032125588,0.084207414,0.046401410156249996,0.029202650390624998
3.616,0.022888061,0.032126695,0.084206109,0.046402016,0.029201914062499997
3.62,0.022887222656249998,0.032127365,0.084204797,0.046401645,0.029203992
3.624,0.022886586,0.032127266,0.084205875,0.046401578124999995,0.029206172
3.628,0.02288625,0.032126425781249995,0.084206039,0.046401242,0.029204529
3.632,0.022886619140624998,0.032125822,0.084206211,0.046401879,0.02920198
3.636,0.022887087890624998,0.032126527343749996,0.084206242,0.046402418,0.029202818359374997
3.64,0.022886988,0.032126627,0.084204734,0.046402316,0.029202686
3.644,0.022887156,0.032126795,0.084204633,0.046403254,0.029202986
3.648,0.022887156,0.032127164,0.084205305,0.04640416,0.029203088
3.652,0.02288558,0.032127197,0.084204867,0.046404195,0.029202383
3.656,0.022884842,0.032126461,0.084203898,0.046404027,0.029203422
3.66,0.022884707,0.03212599,0.084203961,0.046404832031249996,0.029205133
3.664,0.022886016,0.032126059,0.084204367,0.046405199,0.029203959
3.668,0.022886553,0.032126092,0.084204898,0.046405336,0.029204863
3.672,0.022887021,0.03212626,0.084204602,0.046406207,0.02920473
3.676,0.022887759765624998,0.032126863,0.084203391,0.046406707,0.02920359
3.68,0.022888631,0.032127768,0.084203461,0.046407109,0.029201779296874997
3.684,0.022889703124999997,0.032127969,0.084202719,0.046407984374999996,0.029201143
3.688,0.022889938,0.032128271,0.084203289,0.046408887,0.029203053
3.692,0.022889369140624997,0.032128338,0.084203125,0.046409559,0.029202181640624998
3.696,0.022887592,0.032126828,0.08420232,0.046409726562499996,0.029200002
3.7,0.02288749,0.0321276,0.084203023,0.046409894531249996,0.029197924
3.704,0.022888328,0.032128572265624995,0.084203328,0.046409624999999996,0.029197421874999997
3.708,0.022888463,0.032128437499999996,0.084203328,0.046409828,0.029197587890624998
3.712,0.022888396,0.032128473,0.084203289,0.046409355468749997,0.029197119
3.716,0.022889168,0.032128908,0.084202555,0.046408453,0.029196984
3.72,0.022889669921874998,0.032129779,0.084202219,0.046407511718749996,0.029196482
3.724,0.022888664062499998,0.032130953,0.084202453,0.046407246,0.029196984
3.728,0.02288873,0.032131389,0.084203797,0.046407547,0.029196818359374998
3.732,0.022888598,0.032131556640624996,0.084203898,0.046407547,0.029195375
3.736,0.022889033,0.03213226,0.084204367,0.046408184,0.029196215
3.74,0.022889234374999998,0.032132998,0.084204898,0.046409121,0.029198025
3.744,0.022888061,0.032132562499999996,0.084204938,0.046410027,0.029197957
3.748,0.022887759765624998,0.03213226,0.084206406,0.046409926,0.029196783
3.752,0.022886988,0.032132328,0.084207719,0.04640966,0.029197221
3.756,0.022887826,0.032132797,0.084204938,0.046408855468749996,0.029195275390624997
3.76,0.022888598,0.032132227,0.084200945,0.046407211,0.02919142
3.764,0.022889066,0.032132328,0.084200211,0.046405871093749995,0.029190447
3.768,0.022889502,0.032132764,0.08420068,0.046405098,0.029192089843749998
3.772,0.02288957,0.032131824,0.084200578,0.046405066,0.029196179687499997
3.776,0.022889703124999997,0.032131355,0.084200477,0.046405336,0.029196918
3.78,0.022889469,0.032130047,0.084200008,0.046405703124999996,0.029195140624999998
3.784,0.022889736,0.032129109,0.084199602,0.046405535,0.029193633
3.788,0.022889201171874998,0.032129479,0.084200508,0.046405266,0.029192224609374998
3.792,0.022889369140624997,0.032129076,0.084200844,0.046404965,0.02919142
3.796,0.022889033,0.032127869,0.084199836,0.046404496,0.02919142
3.8,0.022889637,0.032128437499999996,0.084200375,0.046403992,0.029192224609374998
3.804,0.02288957,0.032127869,0.084201281,0.046403891,0.029192224609374998
3.808,0.022888932,0.032127332,0.084201781,0.04640443,0.029192426
3.812,0.022888832,0.032127467,0.084201578,0.046404363,0.029193263671874997
3.816,0.022889168,0.032127197,0.084201016,0.046404531,0.029191552734374997
3.82,0.022889402,0.032127533203124996,0.084200578,0.046404460937499996,0.029191083984374998
3.824,0.022889637,0.032128773,0.08420118,0.046404797,0.029192794921874998
3.828,0.022889637,0.032128941,0.084202055,0.046404496,0.029192594
3.832,0.022889168,0.032129041,0.08420168,0.046404531,0.029191519531249998
3.836,0.022888664062499998,0.032129813,0.084200773,0.046405535,0.029190916
3.84,0.02288843,0.032130047,0.084199836,0.046406676,0.029191855
3.844,0.022888496,0.032129344,0.08419957,0.046407043,0.029189844
3.848,0.022889033,0.032129109,0.084199773,0.046406777,0.02918857
3.852,0.022889604,0.032128807,0.084198531,0.046407246,0.029188
3.856,0.022890576,0.032128941,0.084197086,0.046406977,0.029187898
3.86,0.022890374999999998,0.032128908,0.084197055,0.046406543,0.029189507812499998
3.864,0.022889771484374998,0.032128605,0.084197555,0.046406809,0.029191285
3.868,0.022889904,0.032128975,0.084198562,0.046406742187499996,0.029190346
3.872,0.022889502,0.032129277,0.084199203,0.046407547,0.029188771484374997
3.876,0.022888932,0.032129679687499996,0.084197758,0.046407949,0.029187765624999997
3.88,0.022888765624999998,0.032129881,0.084196016,0.046407781249999995,0.029186123046874998
3.884,0.022888262,0.032129176,0.084195914,0.046406941,0.029183809
3.888,0.022887893,0.032129143,0.084196219,0.046405938,0.029182064
3.892,0.022887592,0.032130082,0.084197086,0.046405769531249995,0.029184313
3.896,0.022886553,0.032130818,0.084197594,0.046404933593749996,0.029187363
3.9,0.022886385,0.032129947,0.084196789,0.04640443,0.029188603515624998
3.904,0.022886753906249998,0.032129041,0.084197156,0.046404695,0.029189375
3.908,0.02288682,0.032128673828124996,0.084199367,0.046405066,0.029189475
3.912,0.022886619140624998,0.032129143,0.084200844,0.046404863,0.02918934
3.916,0.02288749,0.032130082,0.084200344,0.046405433593749996,0.029189173828124998
3.92,0.022888664062499998,0.032129712890624995,0.084198797,0.046405199,0.02918773
3.924,0.022889736,0.03213065,0.08419893,0.046404027,0.02918552
3.928,0.02288843,0.032131088,0.08419957,0.046403559,0.029185484374999997
3.932,0.02288692,0.032131556640624996,0.084200008,0.046402718749999995,0.029186123046874998
3.936,0.022885748046874998,0.032131623,0.084199164,0.046401578124999995,0.029187229
3.94,0.022886048828124998,0.032131992,0.084198125,0.046401613,0.029188234
3.944,0.022887055,0.032132059,0.084197727,0.046401379,0.029188268
3.948,0.022887926,0.03213149,0.084198164,0.046401145,0.029185988
3.952,0.022888664062499998,0.032131188,0.084198969,0.046401211,0.02918468
3.956,0.022889066,0.032131289,0.084197758,0.046401074,0.029184646
3.96,0.022889904,0.032131289,0.084196852,0.046401547,0.029184982
3.964,0.022890006,0.032130718749999995,0.084196719,0.046401410156249996,0.029185318
3.968,0.022888832,0.032130047,0.084197422,0.04640034,0.029184313
3.972,0.022887725,0.032130986,0.084197422,0.046400305,0.029184412
3.976,0.022887961,0.032131556640624996,0.08419575,0.046400105,0.029184379
3.98,0.022887759765624998,0.03213149,0.08419518,0.046399301,0.029185553
3.984,0.022887826,0.032131656,0.084195984,0.046398898437499995,0.029186490234374998
3.988,0.022888093749999998,0.032131724609374995,0.084196586,0.046398863,0.029186826
3.992,0.022887391,0.032131656,0.084196516,0.046399164,0.029185720703124998
3.996,0.022886652343749998,0.032130818,0.084194844,0.04639866,0.029182803
4,0.022887156,0.03213092,0.084194141,0.046398461,0.029182904
4.004,0.022887559,0.032130283,0.084194477,0.046398628906249996,0.029184042968749997
4.008,0.022887021,0.032129008,0.084195344,0.046398828,0.029184514
4.012,0.022886216796874997,0.032127902,0.084196086,0.046399164,0.029183977
4.016,0.022886854,0.032127734,0.084197156,0.046399464843749995,0.029182803
4.02,0.022888496,0.03212817,0.084196148,0.046399301,0.029181025390624997
4.024,0.022888496,0.032128305,0.084195281,0.046398395,0.029183138671874997
4.028,0.022888093749999998,0.032128773,0.084196453,0.04639816,0.029184880859374998
4.032,0.022887121,0.032129410156249996,0.08419675,0.046398762,0.029184009765624998
4.036,0.022886517578124998,0.032129947,0.08419568,0.046399164,0.029184042968749997
4.04,0.022885748046874998,0.032129813,0.084195414,0.046398796874999995,0.029184412
4.044,0.022886719,0.032130215,0.08419675,0.046398730468749996,0.029184042968749997
4.048,0.022886082031249998,0.032131389,0.08419793,0.046398730468749996,0.029184211
4.052,0.022885781249999997,0.032131758,0.084198695,0.04639866,0.029184211
4.056,0.022885881,0.032131791,0.08419843,0.046399434,0.029184916
4.06,0.022885949,0.032132059,0.084197695,0.046399969,0.029183842
4.064,0.022886216796874997,0.032132395,0.084197492,0.046399301,0.029182232
4.068,0.022886048828124998,0.032133199,0.084198031,0.046398628906249996,0.02918183
4.072,0.022885914,0.032133031,0.084198328,0.046398593749999995,0.029183307
4.076,0.022886586,0.032133668,0.084199164,0.046398762,0.029183674
4.08,0.022886418,0.032134307,0.084199203,0.046399164,0.02918307
4.084,0.022885412,0.0321334,0.084198734,0.046399499999999996,0.029182635
4.088,0.022885244,0.032132328,0.084198664,0.046399769531249996,0.029182232
4.092,0.022885982,0.032132295,0.084198328,0.04640007,0.029181629
4.096,0.022887189453124998,0.032132529,0.084196383,0.046399835937499995,0.029180926
4.1,0.022885646484374998,0.032132629,0.08419575,0.046399063,0.029182668
4.104,0.022884842,0.032133466796874996,0.084197156,0.046397723,0.029183373
4.108,0.022885076171874998,0.032133367,0.084198266,0.046397621,0.029183472656249997
4.112,0.022885547,0.032132998,0.084199164,0.046397289,0.029181126953124997
4.116,0.022885848,0.032132898,0.084198359,0.046396852,0.02917965
4.12,0.022886316,0.03213283,0.084197992,0.046396047,0.029180121093749997
4.124,0.022886316,0.032132328,0.084197695,0.046395879,0.029179685546874997
4.128,0.022885748046874998,0.032132932,0.08419793,0.046395141,0.02918002
4.132,0.022885814,0.032133904,0.084198094,0.046394238,0.029181059
4.136,0.022884875,0.032133869,0.08419675,0.046394371,0.02918173
4.14,0.022884406,0.032133301,0.084196687,0.046394102,0.029183037109374997
4.144,0.022885881,0.032132730468749995,0.08419793,0.046393969,0.029182433593749998
4.148,0.022885479,0.032133568359374996,0.084199969,0.046394773437499995,0.029182904
4.152,0.022883668,0.032133668,0.084200742,0.04639598,0.029183541015624998
4.156,0.022882361,0.032133938,0.084199336,0.046394973,0.029179215
4.16,0.022882628906249997,0.032134541,0.084198328,0.046393902343749994,0.029176365234374998
4.164,0.022882595703124998,0.032134607421874996,0.084198766,0.046392695312499996,0.029177070312499997
4.168,0.022882896484374998,0.03213407,0.084199602,0.046391988,0.029177908
4.172,0.022883133,0.032133836,0.084199539,0.046391922,0.029176634765624997
4.176,0.022883971,0.03213491,0.084199,0.046392793,0.029177974609374997
4.18,0.022884205078124997,0.032134640624999995,0.084198664,0.04639407,0.029180691406249997
4.184,0.022883902,0.032133971,0.084199672,0.046394738,0.029181427734374998
4.188,0.022883902,0.032133938,0.084201016,0.046395109,0.029180322
4.192,0.022883232,0.032133904,0.084200039,0.046395043,0.029178443
4.196,0.022883568,0.032133634765624995,0.084198531,0.046394707031249996,0.029178980468749997
4.2,0.022883568,0.03213407,0.08419793,0.046394805,0.029177974609374997
4.204,0.022882730468749998,0.032134574218749996,0.084197227,0.046395141,0.029175594
4.208,0.022882896484374998,0.032133803,0.084196922,0.046394473,0.029173852
4.212,0.022882494140624998,0.032133166,0.084198266,0.046393867,0.029172945
4.216,0.022883064453124997,0.032134373,0.08419843,0.046393531249999995,0.029172813
4.22,0.022883971,0.032135109,0.084197828,0.046394203,0.029175762
4.224,0.02288377,0.032134139,0.084197187,0.046394035,0.029177707
4.228,0.022884070312499998,0.032133064,0.084197461,0.046392895,0.029177773
4.232,0.022884205078124997,0.0321334,0.084197992,0.046392727,0.029178376953124998
4.236,0.022883535,0.032133334,0.084196687,0.046392996,0.02917935
4.24,0.022884305,0.032132295,0.084195914,0.046392425781249996,0.0291766
4.244,0.022884574,0.032131959,0.08419632,0.046390984,0.029175662
4.248,0.022884406,0.032131455078124996,0.084197227,0.046389542968749996,0.029177271
4.252,0.022884205078124997,0.032131121,0.084198062,0.046389008,0.029176365234374998
4.256,0.022884205078124997,0.032131121,0.084197492,0.046388402343749996,0.029177438
4.26,0.022883601562499998,0.032130887,0.084197258,0.046388468749999995,0.029177839843749998
4.264,0.022883736328124998,0.032131289,0.084198266,0.046388839843749995,0.029178041
4.268,0.022884305,0.032132295,0.084199203,0.046389574,0.029178376953124998
4.272,0.022885311,0.032132898,0.084199539,0.046390078,0.029179014
4.276,0.022884505859374998,0.032132562499999996,0.084197758,0.046388805,0.029178344
4.28,0.022882563,0.032131857,0.084197992,0.046388168,0.029180289
4.284,0.022881824,0.032131959,0.084200242,0.046387766,0.029179283
4.288,0.022883299,0.032132059,0.08419907,0.046386426,0.029174488281249997
4.292,0.022884406,0.032132562499999996,0.084198359,0.046385586,0.029171167968749998
4.296,0.022883938,0.032133133,0.08419732,0.046384613,0.029170498
4.3,0.022883634765624997,0.032133334,0.084196852,0.046384781,0.029172209
4.304,0.022882361,0.032132965,0.084197023,0.046385316406249995,0.029173684
4.308,0.022881689,0.032131992,0.084197156,0.046384582031249996,0.029173482421874997
4.312,0.022881121093749998,0.032131824,0.084198195,0.046384582031249996,0.029175794921874998
4.316,0.022882395,0.032131959,0.084198531,0.046385887,0.029176499999999998
4.32,0.022882662,0.032131523,0.084197656,0.046386593749999996,0.029175594
4.324,0.022881890624999998,0.032131322,0.084198227,0.046387063,0.029177438
4.328,0.022881523,0.032131121,0.084199234,0.046386558593749995,0.029177773
4.332,0.022882227,0.032131824,0.084199602,0.046386660156249995,0.029175929687499998
4.336,0.022882998,0.032132395,0.084198125,0.046386996,0.029173215
4.34,0.022883098,0.032131791,0.084197156,0.046386727,0.029174254
4.344,0.022882058593749997,0.032131556640624996,0.084197594,0.046386426,0.029175929687499998
4.348,0.022882227,0.032132998,0.084198195,0.046387129,0.029174521
4.352,0.022883199,0.032134172,0.084199305,0.046387898,0.029174152
4.356,0.022882932,0.032133232,0.084197727,0.046388,0.029172979
4.36,0.022882460937499998,0.032132328,0.084196516,0.046387160156249996,0.029172543
4.364,0.022882595703124998,0.032133502,0.084196656,0.046385953,0.029172611328124997
4.368,0.022883266,0.032134205,0.084196852,0.046385051,0.029172174
4.372,0.02288377,0.032135346,0.084197289,0.046384715,0.029172576
4.376,0.022884406,0.032136352,0.084197023,0.046385285,0.029172678
4.38,0.022885412,0.032135848,0.084195516,0.046384210937499996,0.02917241
4.384,0.022885145,0.03213568,0.084195617,0.046382636718749995,0.029172174
4.388,0.022884505859374998,0.032135881,0.084197227,0.046381765624999995,0.029172308593749998
4.392,0.022883836,0.032135511718749996,0.084196953,0.046381027,0.02917184
4.396,0.022882662,0.03213491,0.084195383,0.046380355468749995,0.02917127
4.4,0.022882328,0.032135145,0.084194906,0.046379449,0.029173281
4.404,0.022881992,0.032135109,0.084194375,0.046379214843749995,0.029171537
4.408,0.022880887,0.032134541,0.084194906,0.046378613281249995,0.029170296874999998
4.412,0.022881355,0.032134172,0.084195344,0.046378277343749996,0.029173146
4.416,0.022881623,0.032133133,0.0841935,0.046377105,0.029174019531249998
4.42,0.022881019531249998,0.032132662,0.084192227,0.046376433593749995,0.029173984
4.424,0.022881926,0.032132730468749995,0.084192063,0.046375863,0.029173783203124998
4.428,0.022883199,0.032132460937499996,0.084192328,0.046375996,0.029174086
4.432,0.022883166015624998,0.032132529,0.084192398,0.04637593,0.029173984
4.436,0.022882395,0.032132361,0.084191625,0.046375797,0.029172846
4.44,0.022880718749999997,0.032131053,0.084190555,0.046374723,0.029170330078124997
4.444,0.022879947,0.032130484,0.084191125,0.046374086,0.029169225
4.448,0.02288035,0.032131154,0.084191992,0.046373316,0.02917023
4.452,0.022881355,0.032132025,0.084193031,0.046373148,0.029170900390624997
4.456,0.022880248,0.032130685546874996,0.084191422,0.046372477,0.029170967
4.46,0.022878773,0.032129242,0.084190789,0.046372477,0.029172443359374998
4.464,0.022879544921874998,0.032129041,0.084190883,0.046373281249999995,0.029170564
4.468,0.022881088,0.032129578124999995,0.084191188,0.046375094,0.029169392578124998
4.472,0.022880852,0.03213035,0.084190648,0.046375191406249995,0.029170330078124997
4.476,0.022879611,0.032130484,0.084188469,0.046374218749999994,0.029170699
4.48,0.022879109374999998,0.032130148,0.084187531,0.046373113281249996,0.029170063
4.484,0.022878941,0.032130014,0.084188141,0.046373011718749996,0.029170363
4.488,0.022877266,0.032130047,0.084189914,0.046373047,0.029170900390624997
4.492,0.022876896,0.032130316,0.084191023,0.046373652343749995,0.02916966
4.496,0.022877467,0.032131455078124996,0.084190219,0.04637516,0.029169324218749997
4.5,0.022878707031249997,0.03213149,0.084188773,0.046376164062499996,0.029168285156249998
4.504,0.022879512,0.032131355,0.084188375,0.046376031,0.029166273437499998
4.508,0.022879344,0.032131893,0.084189516,0.046375996,0.029166843749999997
4.512,0.022879007812499998,0.032132328,0.08419018,0.046376398,0.029167714843749998
4.516,0.022878941,0.032132295,0.084189109,0.046377539,0.029168855468749998
4.52,0.022878236,0.032131857,0.084187937,0.04637868,0.02916691
4.524,0.0228775,0.03213149,0.084187297,0.046378949,0.029166810546874998
4.528,0.022877097656249998,0.032131959,0.084187734,0.046379148,0.029166542968749997
4.532,0.022876527343749998,0.032131992,0.084187805,0.046378714843749995,0.02916443
4.536,0.022876494,0.032131992,0.08418693,0.046378277343749996,0.029165939453124998
4.54,0.022876594,0.032132965,0.084185992,0.046378343749999995,0.029167714843749998
4.544,0.022875857,0.032133266,0.084186727,0.046378175781249996,0.029167312499999997
4.548,0.022875689,0.032134373,0.084188437,0.046377875,0.029167849609374998
4.552,0.022875822265624998,0.032135211,0.084188539,0.046377707,0.029167346
4.556,0.022876828,0.032135311,0.084185922,0.046376836,0.029167045
4.56,0.022877097656249998,0.032135145,0.084183945,0.046376367187499996,0.029167144531249998
4.564,0.022877266,0.032135379,0.084183211,0.046375965,0.029166174
4.568,0.022876091796874998,0.032135412,0.084184016,0.046375496093749996,0.029165135
4.572,0.022875689,0.032135379,0.084183445,0.046374289,0.029163859
4.576,0.022876425781249998,0.032135478515624996,0.08418257,0.046372914,0.029164865
4.58,0.022877533203124998,0.032134977,0.084182102,0.046371167968749995,0.029165234374999998
4.584,0.022878506,0.03213491,0.084182203,0.046369727,0.029161949
4.588,0.022878539062499998,0.032135244,0.084183242,0.046369292968749996,0.029160742187499998
4.592,0.022878572265624997,0.032135748046874996,0.084184352,0.046368453,0.02916252
4.596,0.022877431640624998,0.032136283,0.084184352,0.046367949218749996,0.029163255859374997
4.6,0.022876560546874997,0.032135848,0.084183078,0.046368218749999995,0.029161949
4.604,0.022876662109374998,0.032135109,0.084181836,0.046367179687499996,0.029159667968749997
4.608,0.022877266,0.032134775,0.084181063,0.046365769531249997,0.029157724609374998
4.612,0.022876996093749997,0.03213407,0.084180758,0.046365301,0.029159502
4.616,0.022875789,0.032132898,0.084180563,0.046364464843749995,0.029162117
4.62,0.022876326,0.032132127,0.084180391,0.046363559,0.029163289
4.624,0.022876191,0.032131824,0.084181602,0.046363223,0.029163792968749998
4.628,0.022875521484374998,0.032130887,0.084183445,0.046363594,0.029165972656249997
4.632,0.022876326,0.032131455078124996,0.084183547,0.046363895,0.029167648
4.636,0.022877431640624998,0.032131758,0.084182039,0.046363257812499996,0.029163960937499997
4.64,0.022877197,0.032131455078124996,0.084180594,0.04636252,0.029161277
4.644,0.022876091796874998,0.032131355,0.084180695,0.046362586,0.029159634765624998
4.648,0.022873476562499998,0.032130383,0.084180258,0.046361347656249996,0.029157389
4.652,0.02287284,0.032130449218749996,0.084179383,0.046360105468749996,0.029157019531249998
4.656,0.022873644531249997,0.03213065,0.084178211,0.046359066406249996,0.029158193359374997
4.66,0.022874783,0.032131389,0.084178414,0.04635957,0.029158160156249998
4.664,0.022875152,0.03213149,0.084179086,0.046358934,0.029158863
4.668,0.022876191,0.032130383,0.084180156,0.046357488,0.029158529
4.672,0.022875419921874997,0.032128875,0.084179422,0.046356351562499995,0.029157389
4.676,0.022874582,0.032128975,0.084178484,0.046356418,0.029157857
4.68,0.022875018,0.032129479,0.084177242,0.046356586,0.029157523
4.684,0.022875186,0.032129578124999995,0.084176836,0.046356586,0.029155109
4.688,0.02287532,0.032129410156249996,0.084177305,0.046355914062499996,0.029153768
4.692,0.02287418,0.032128707,0.08417657,0.046355210937499995,0.029154605468749997
4.696,0.022873207,0.032128371,0.084175664,0.046354809,0.029155881
4.7,0.022873509765624998,0.032128505859374996,0.084175297,0.046354238281249995,0.029156718749999998
4.704,0.022873074218749997,0.032128773,0.08417593,0.046354070312499995,0.02915635
4.708,0.022873174,0.032129041,0.084176906,0.046354339843749995,0.029156383
4.712,0.022874080078124998,0.032129479,0.084176734,0.046354406,0.029156082
4.716,0.022874348,0.032129176,0.084175836,0.046353031249999996,0.029155881
4.72,0.022873912,0.032128908,0.084175734,0.046351422,0.029156316406249997
4.724,0.022872973,0.032129143,0.084177445,0.046350551,0.029157455
4.728,0.022872906,0.032129143,0.084178883,0.046350449,0.029155007812499998
4.732,0.022874717,0.032129544921874996,0.084178883,0.046350281,0.029153635
4.736,0.022876158,0.03212998,0.084177914,0.046350215,0.029155244140624998
4.74,0.02287532,0.03213102,0.084177812,0.046351019531249996,0.029156248
4.744,0.022874482,0.032130484,0.084178852,0.046351055,0.029153599609374997
4.748,0.022874146,0.032129813,0.084179688,0.046350449,0.029152124999999997
4.752,0.022874281,0.032129410156249996,0.08417932,0.046349848,0.029152191
4.756,0.022874380859374998,0.03212874,0.084178312,0.046349175781249995,0.029152259765624997
4.76,0.022873810546874998,0.032127768,0.084178883,0.04634857,0.029153599609374997
4.764,0.022872973,0.032128338,0.084178484,0.046348473,0.029152830078124997
4.768,0.022872236,0.032128305,0.084179219,0.046348906249999995,0.029152091796874998
4.772,0.022871699,0.032127365,0.084179352,0.046349512,0.029152124999999997
4.776,0.022870258,0.032126795,0.084178953,0.046350148437499995,0.029150281
4.78,0.022869486328124997,0.032126627,0.084178578,0.046349445,0.029151186
4.784,0.022869789,0.032126627,0.084178148,0.046349175781249995,0.029152494
4.788,0.022869387,0.032125957,0.084178211,0.046349109374999996,0.029152963
4.792,0.022869285,0.032125822,0.084177914,0.046348605,0.029151990234374998
4.796,0.02286999,0.032126527343749996,0.084177375,0.046348238281249995,0.029150381
4.8,0.022870492187499997,0.032125656249999995,0.084176133,0.046347332,0.029150113281249997
4.804,0.022870393,0.032125119,0.084175734,0.046346258,0.029151354
4.808,0.022869888671874998,0.032125353515624996,0.084177305,0.046346258,0.029150885
4.812,0.022869017578124998,0.032126461,0.084178719,0.046346324,0.029149509765624998
4.816,0.022869453124999998,0.032126494140624996,0.084177141,0.04634609,0.029147867
4.82,0.022869051,0.032126461,0.084175563,0.046345656,0.029147933593749998
4.824,0.022868882812499998,0.032126627,0.084177141,0.046345656,0.029148771
4.828,0.022868882812499998,0.032126896,0.084178547,0.04634609,0.029149107421874997
4.832,0.022868213,0.032127098,0.08417825,0.046345824,0.029149107421874997
4.836,0.022868213,0.032127467,0.084176602,0.04634609,0.029148705
4.84,0.02286952,0.032127936,0.084177406,0.046346726562499996,0.029149611
4.844,0.022870291,0.032127667968749996,0.084178078,0.046346559,0.029152896
4.848,0.022869888671874998,0.032127266,0.084177539,0.046344516,0.029154305
4.852,0.022870225,0.032127131,0.084176734,0.046343074218749995,0.029151422
4.856,0.022869789,0.032126527343749996,0.084174891,0.046342504,0.029150683593749997
4.86,0.022869654,0.032125924,0.084174227,0.046341969,0.029149711
4.864,0.022870492187499997,0.03212599,0.084174797,0.046341633,0.029148906
4.868,0.022871264,0.032126023,0.084176469,0.046340960937499995,0.029149912
4.872,0.022871766,0.032124852,0.084175969,0.046341062499999995,0.029148605468749998
4.876,0.022871933593749998,0.032125119,0.08417432,0.046340559,0.02914884
4.88,0.022872168,0.032126527343749996,0.084174289,0.046339316,0.029149208984374998
4.884,0.022872738,0.032126461,0.084174523,0.046337640624999996,0.029147162
4.888,0.022872973,0.032126461,0.084175031,0.046337140624999995,0.02914599
4.892,0.022872705,0.032126863,0.084176406,0.046337238,0.029148002
4.896,0.022873509765624998,0.032127266,0.084176133,0.046337375,0.029150113281249997
4.9,0.022873846,0.032127467,0.084175266,0.046337640624999996,0.029153097656249998
4.904,0.022874046874999998,0.032127969,0.084174055,0.04633734,0.029152896
4.908,0.022872705,0.032128203,0.084173219,0.046336301,0.029149611
4.912,0.022871633,0.032129109,0.084174227,0.046336098,0.029149342
4.916,0.022870727,0.032128908,0.084174188,0.046336234,0.02915018
4.92,0.022869587890624998,0.032127633,0.084174188,0.046336199,0.029151287
4.924,0.022869822,0.032127633,0.084175633,0.046336301,0.029151220703124998
4.928,0.022871297,0.032128371,0.084176539,0.046335832031249996,0.029148168
4.932,0.02287227,0.032129813,0.084176734,0.046335460937499996,0.029149542968749997
4.936,0.022873509765624998,0.032131154,0.084176336,0.046335766,0.029153398
4.94,0.022875354,0.032131121,0.084173719,0.046334793,0.029153265624999997
4.944,0.022876762,0.032130484,0.084172281,0.046334289,0.029148503906249998
4.948,0.022876392578124998,0.032129645,0.084172781,0.046333953,0.029146593749999998
4.952,0.022875119,0.032129209,0.084173852,0.046333852,0.029148369140624998
4.956,0.022874080078124998,0.032129712890624995,0.084173383,0.046334523,0.029150014
4.96,0.022874146,0.032129712890624995,0.084173586,0.046334691406249996,0.029151119140624997
4.964,0.022874650390624997,0.032129881,0.084173219,0.046334422,0.029150717
4.968,0.022875119,0.032130718749999995,0.084173789,0.046334757812499995,0.029150515624999998
4.972,0.022874080078124998,0.032131623,0.084173281,0.046334355,0.029150113281249997
4.976,0.022874650390624997,0.032132395,0.084171711,0.04633352,0.029150548828124997
4.98,0.022875119,0.032131893,0.084170539,0.046333383,0.029149576
4.984,0.022874515624999998,0.032131523,0.084170672,0.046333082,0.029149041
4.988,0.022873744,0.032130785,0.084171539,0.046331976562499995,0.029148705
4.992,0.022872973,0.032130148,0.084171945,0.046330769531249996,0.029148705
4.996,0.022872068359374997,0.032129947,0.08417268,0.046330835937499995,0.029151623
5,0.02287227,0.032130115,0.084173617,0.046331742,0.029150548828124997
5.004,0.022872303,0.032129277,0.084174797,0.046331910156249996,0.029148503906249998
5.008,0.022872906,0.032129143,0.084175398,0.046331874999999995,0.029148101562499997
5.012,0.022873342,0.032129645,0.084174727,0.046332242,0.029147095703124997
5.016,0.022872402,0.032129813,0.084173453,0.046331137,0.029147867
5.02,0.022870627,0.032129679687499996,0.084172852,0.04632973,0.029150214843749998
5.024,0.02287009,0.032130248,0.084173516,0.046329227,0.02915102
5.028,0.022869822,0.032130550781249996,0.084175266,0.046328621,0.02915132
5.032,0.022870458984374998,0.032129881,0.084174727,0.046328254,0.029150617
5.036,0.02287066,0.032130283,0.084174594,0.046328152,0.02915102
5.04,0.02287133,0.032131154,0.084174961,0.046328086,0.02915102
5.044,0.02287133,0.032130986,0.084175398,0.046327918,0.029149846
5.048,0.022871834,0.032131455078124996,0.084176602,0.046327617187499996,0.029150617
5.052,0.022872604,0.032132059,0.084175195,0.046326914062499995,0.02915018
5.056,0.022872168,0.032132094,0.084174523,0.046326344,0.029149174
5.06,0.02287257,0.032131824,0.084174391,0.046326542968749995,0.029148906
5.064,0.022873207,0.032130215,0.084174727,0.046326207,0.029148939453124998
5.068,0.022873374999999998,0.032129479,0.084175898,0.046326109,0.029150717
5.072,0.022873309,0.03212998,0.084176539,0.046326309,0.029152359
5.076,0.022872973,0.032130785,0.08417657,0.046326309,0.029152124999999997
5.08,0.022873107,0.032131121,0.084176367,0.046326344,0.029151957
5.084,0.022873242,0.032131289,0.084176234,0.046326207,0.029152226562499998
5.088,0.02287284,0.032130818,0.084176336,0.046326207,0.029152158
5.092,0.02287284,0.032130248,0.084175563,0.046326309,0.029151354
5.096,0.022872804687499998,0.032130283,0.084173789,0.046325874999999996,0.029148369140624998
5.1,0.022873609,0.032129881,0.084173148,0.046325641,0.02914884
5.104,0.022873744,0.032129443359374996,0.084173016,0.046324699,0.029152091796874998
5.108,0.022872470703124998,0.032129443359374996,0.08417375,0.046323629,0.02915102
5.112,0.022872939453124998,0.032130047,0.084175531,0.046324266,0.029152025
5.116,0.022873041015624998,0.032130518,0.084176406,0.046325305,0.029154371
5.12,0.022873408203124997,0.032131121,0.084176031,0.046326309,0.029154439
5.124,0.022873576,0.032131221,0.084176469,0.046327449,0.029153434
5.128,0.022872470703124998,0.032131053,0.084175766,0.04632775,0.029151756
5.132,0.022871967,0.032130518,0.084175297,0.046327617187499996,0.029152124999999997
5.136,0.022872402,0.032130518,0.084174289,0.046327215,0.029151455
5.14,0.022872537,0.032131053,0.08417432,0.04632698,0.029151354
5.144,0.022872135,0.032130718749999995,0.084174625,0.046325973,0.029152091796874998
5.148,0.022871564,0.032130986,0.084175359,0.046325402343749995,0.029152359
5.152,0.022871096,0.032131959,0.084177109,0.046326242,0.029151689453124997
5.156,0.022871297,0.032131589843749996,0.084176133,0.046326578,0.029151957
5.16,0.022871264,0.032130115,0.084174156,0.046326141,0.029151756
5.164,0.022872,0.032129611,0.084174086,0.04632641,0.029149677734374997
5.168,0.022873141,0.032129041,0.084174523,0.046326746093749996,0.029147531249999997
5.172,0.02287418,0.032128975,0.084175063,0.046326746093749996,0.029145219
5.176,0.022874248,0.032130082,0.084175531,0.046326207,0.029143643
5.18,0.022873242,0.032129611,0.084175359,0.046325738,0.029145017578124998
5.184,0.022871633,0.032127869,0.084172344,0.046324734374999996,0.029149509765624998
5.188,0.02286999,0.032127701,0.084172445,0.046323863281249995,0.029152560546874998
5.192,0.022869921874999997,0.032129712890624995,0.084175297,0.046323629,0.029156887
5.196,0.022871564,0.032131656,0.084176602,0.046323863281249995,0.029157824
5.2,0.022872939453124998,0.032132965,0.084177242,0.046323359,0.029158395
5.204,0.022872503906249998,0.032133166,0.08417607,0.046323227,0.029159232421874997
5.208,0.022870792968749998,0.032132898,0.084175031,0.046321749999999995,0.029158094
5.212,0.022871162,0.032133836,0.084174492,0.04632118,0.029157455
5.216,0.022870961,0.032133568359374996,0.084171742,0.046321246,0.029155947
5.22,0.022870225,0.032132427734374996,0.084168891,0.046320844,0.029154439
5.224,0.022870828,0.0321331,0.084166242,0.046320273,0.02915541
5.228,0.022871498046874997,0.032134004,0.084166078,0.046321246,0.029157254
5.232,0.022871129,0.032134775,0.084166375,0.046321715,0.029160775390624998
5.236,0.022871464843749998,0.032135949,0.084164664,0.046321715,0.029160406
5.24,0.022871900390624998,0.032135914,0.084163828,0.046320878906249995,0.029158697
5.244,0.02287123,0.032136082,0.08416393,0.046320309,0.029159333984374997
5.248,0.022870258,0.032135881,0.084163461,0.046319504,0.029158328124999997
5.252,0.022870291,0.03213615,0.084162688,0.046319035,0.029157926
5.256,0.02287009,0.032135613281249996,0.08416282,0.046318934,0.029161145
5.26,0.022872,0.032134809,0.084163297,0.046318597656249995,0.029159333984374997
5.264,0.022873006,0.032134809,0.084163625,0.046317828124999995,0.029157254
5.268,0.022873275,0.032134742187499996,0.084164266,0.046317191,0.029157791
5.272,0.022873846,0.032135145,0.084164664,0.046317558593749995,0.029159333984374997
5.276,0.022874615,0.032135478515624996,0.084164766,0.046317523,0.02916101
5.28,0.022874783,0.032134574218749996,0.084163195,0.046316352,0.029160004
5.284,0.022875018,0.032133904,0.084163492,0.046316184,0.029157589843749998
5.288,0.022875254,0.032133803,0.084163328,0.046317726562499995,0.029157926
5.292,0.022874885,0.032134105,0.084161586,0.046318328124999995,0.029158160156249998
5.296,0.022873711,0.032133568359374996,0.084160141,0.046317961,0.029159736328124998
5.3,0.022873242,0.03213377,0.084160477,0.046317660156249996,0.029160574
5.304,0.022873576,0.03213407,0.084160039,0.046317691,0.029158965
5.308,0.022873543,0.032134373,0.084161281,0.046317926,0.029158461
5.312,0.022873242,0.032134842,0.084161516,0.046318566,0.029158428
5.316,0.022872503906249998,0.032134943,0.084160313,0.046318898,0.029158461
5.32,0.022873309,0.032134004,0.084159203,0.046318898,0.029158428
5.324,0.022872939453124998,0.032133334,0.084158266,0.046317492187499996,0.029159568
5.328,0.022871900390624998,0.032133266,0.08415843,0.046316352,0.029157892578124997
5.332,0.022872168,0.032132662,0.084156922,0.046316016,0.029156818
5.336,0.022871129,0.032131289,0.08415525,0.046316417968749996,0.029154773
5.34,0.022871531,0.032129914,0.084154609,0.046316016,0.029152896
5.344,0.022871798828124998,0.032130082,0.084155016,0.046316285,0.029154238281249998
5.348,0.022870994,0.032129947,0.084155414,0.046316652,0.029156617187499997
5.352,0.022870492187499997,0.032129813,0.084154539,0.046316453,0.029156148437499998
5.356,0.022870592,0.032129947,0.084153031,0.046315445312499995,0.029154539
5.36,0.022870961,0.032130047,0.084152094,0.046314809,0.029153265624999997
5.364,0.022870492187499997,0.032129779,0.084151359,0.046314339843749996,0.029153467
5.368,0.022870559,0.032130383,0.084151828,0.046314375,0.029152359
5.372,0.022871195,0.032131355,0.084153539,0.046314777343749995,0.029153365
5.376,0.022871464843749998,0.032131623,0.084152328,0.046315246,0.029156248
5.38,0.02287009,0.032130550781249996,0.084149812,0.046315211,0.029157455
5.384,0.022869486328124997,0.032131322,0.084151289,0.046315949,0.029157389
5.388,0.022870994,0.032132764,0.08415243,0.046316519531249996,0.029158998
5.392,0.022871732,0.032132460937499996,0.084151727,0.046316855,0.029159232421874997
5.396,0.022871666,0.032132227,0.084150617,0.046316316406249995,0.029157656
5.4,0.022871834,0.032131893,0.084150016,0.046316184,0.029157254
5.404,0.022872,0.032131656,0.084150953,0.046315914,0.029157121
5.408,0.022872939453124998,0.032131322,0.084151391,0.046315348,0.029156383
5.412,0.022872369140624998,0.032131121,0.084150688,0.046314574218749995,0.029155746093749997
5.416,0.022872135,0.032132227,0.08415025,0.046313902,0.02915665
5.42,0.022872402,0.032132361,0.084149883,0.046313066,0.029153801
5.424,0.022872369140624998,0.032131791,0.084149047,0.046311992,0.029149879
5.428,0.022871633,0.032131053,0.084150422,0.046311156,0.02915018
5.432,0.02287123,0.032131691406249996,0.084151492,0.04631052,0.029149342
5.436,0.022870324218749998,0.032132629,0.084151656,0.046310785,0.029152863
5.44,0.022869822,0.032132998,0.084150383,0.046310652343749995,0.029154404
5.444,0.022870792968749998,0.032133301,0.084149477,0.046309645,0.029152461
5.448,0.022871363281249998,0.032133301,0.08414918,0.046308707,0.02915075
5.452,0.022871598,0.032132898,0.084147906,0.046309242187499995,0.029150783
5.456,0.022870156,0.032132460937499996,0.084147266,0.046309848,0.029153064
5.46,0.022869789,0.032132227,0.084147805,0.046309781,0.029154707031249998
5.464,0.022870023437499998,0.032131221,0.084147906,0.046308977,0.029153398
5.468,0.022870156,0.032130316,0.084148039,0.046308941,0.029152461
5.472,0.022870559,0.032130215,0.084148141,0.046309882812499994,0.02915293
5.476,0.022870994,0.032130215,0.084146664,0.046311324,0.029152695312499997
5.48,0.022870894531249998,0.032130182,0.084145688,0.046311558593749996,0.029153130859374998
5.484,0.022870994,0.032129746,0.084145055,0.046310382812499995,0.029152729
5.488,0.022870927734374998,0.032129813,0.084145789,0.046309714843749995,0.029149846
5.492,0.022871363281249998,0.032130416015624996,0.084146125,0.046309613281249995,0.029149074218749998
5.496,0.022872236,0.032129645,0.08414368,0.046308605,0.029148503906249998
5.5,0.022871633,0.032129544921874996,0.084142711,0.046308273,0.029152091796874998
5.504,0.022870525,0.032129578124999995,0.084142273,0.046308004,0.029152695312499997
5.508,0.022868949,0.032128875,0.084142172,0.046307938,0.029149978515624998
5.512,0.022869486328124997,0.032128305,0.08414257,0.046308304687499996,0.029148101562499997
5.516,0.022870156,0.032128305,0.084141031,0.046307535156249996,0.029145889
5.52,0.022869219,0.032128305,0.08413982,0.046306898,0.029145252
5.524,0.022868447265624998,0.032128875,0.084141,0.046306562499999995,0.029146861
5.528,0.022867943,0.032129712890624995,0.084141969,0.046305421874999995,0.029147432
5.532,0.022868447265624998,0.032129645,0.084141531,0.046304449218749995,0.029145921874999998
5.536,0.022868414,0.032128473,0.084140391,0.046304179687499995,0.029145285
5.54,0.022868213,0.032127734,0.084139727,0.046303848,0.02914666
5.544,0.022868213,0.032127902,0.084140328,0.046302973,0.029145354
5.548,0.022867105,0.032128104,0.0841415,0.046302605,0.029142369
5.552,0.022867306640624998,0.032129109,0.084141766,0.046302773,0.029143005859374998
5.556,0.022867876953124998,0.032130047,0.084140727,0.046303109,0.029142939
5.56,0.022868682,0.032130752,0.084140859,0.046303277,0.029141564453124998
5.564,0.022870057,0.032129712890624995,0.084141367,0.046302738,0.029141564453124998
5.568,0.022870225,0.032128104,0.08414043,0.04630207,0.02914267
5.572,0.022868648,0.032127969,0.084140664,0.046301598,0.02914267
5.576,0.022868816,0.032127869,0.08414157,0.046301031,0.029143979
5.58,0.022870123,0.032127734,0.084141703,0.046300628906249995,0.029145486328124998
5.584,0.022870258,0.032127533203124996,0.084141703,0.046300257812499995,0.02914542
5.588,0.022869721,0.032127566406249995,0.084143109,0.046300089843749996,0.029145017578124998
5.592,0.022870492187499997,0.032127332,0.084143273,0.046300527343749995,0.029144749999999997
5.596,0.022871129,0.032127197,0.084142039,0.046300797,0.029146426
5.6,0.022871464843749998,0.032127633,0.084141633,0.046301434,0.029147264
5.604,0.022870525,0.032127936,0.08414207,0.046301633,0.029147029296874998
5.608,0.022869955,0.032127431640624995,0.084141867,0.04630093,0.029143777
5.612,0.022870492187499997,0.032125891,0.084140023,0.046299488281249995,0.029141631
5.616,0.022871464843749998,0.032124951,0.084139086,0.046297879,0.0291421
5.62,0.022872672,0.032124951,0.084139859,0.046296637,0.029140892578124997
5.624,0.022872,0.032124582,0.084140625,0.046295164,0.029139318
5.628,0.022872068359374997,0.03212418,0.084141367,0.046294691,0.029142637
5.632,0.022871834,0.032125152,0.084140664,0.046294289,0.029143306640624998
5.636,0.022870492187499997,0.032125018,0.084139422,0.046293621,0.029142838
5.64,0.022870258,0.032123107,0.084138648,0.046292781,0.029142201
5.644,0.022870492187499997,0.032122807,0.084139992,0.046292347656249996,0.029142805
5.648,0.022870324218749998,0.032123341796874996,0.084140195,0.046292078,0.029141832
5.652,0.022870727,0.032123945,0.08413932,0.046291574,0.029142771
5.656,0.022870393,0.032124281,0.084137578,0.046291473,0.029144615234374997
5.66,0.022870258,0.032123611328124996,0.08413657,0.046291039,0.029143979
5.664,0.022870792968749998,0.032124482421874996,0.084137078,0.046289832,0.029143744140624997
5.668,0.022872068359374997,0.032125723,0.084138016,0.046289629,0.029142066
5.672,0.022871900390624998,0.032125455,0.084137172,0.046288824,0.029140256
5.676,0.022870458984374998,0.032124549,0.084136172,0.046288254,0.029140928
5.68,0.022870225,0.032125018,0.08413768,0.046288727,0.029142167968749997
5.684,0.022871029296874998,0.032126059,0.084138586,0.046289195312499996,0.02914267
5.688,0.022871967,0.032126695,0.084138281,0.046288324218749996,0.029142537109374998
5.692,0.022871766,0.032127266,0.084138414,0.046287586,0.029142703
5.696,0.02287257,0.032127902,0.084137344,0.046287383,0.029141597656249997
5.7,0.022872672,0.032128035,0.084136906,0.046285875,0.029143207
5.704,0.022873443,0.032128305,0.084137547,0.046285004,0.029143273
5.708,0.022873141,0.032128305,0.084138016,0.046284132812499997,0.02913982
5.712,0.022871699,0.032128305,0.084138352,0.046283461,0.029140123046874997
5.716,0.022870492187499997,0.032128505859374996,0.08413882,0.046282824,0.029143508
5.72,0.02286952,0.032127834,0.084138852,0.046282691,0.029145855
5.724,0.022869219,0.032127566406249995,0.084139586,0.046282992,0.029145084
5.728,0.022868949,0.032126293,0.084139016,0.046282289062499996,0.029143173828124997
5.732,0.022869921874999997,0.032125287,0.084137242,0.046280945312499995,0.029141898437499997
5.736,0.02287066,0.032124918,0.084136,0.046280609,0.029142134765624998
5.74,0.022870225,0.032125353515624996,0.084135234,0.046280711,0.029141999999999998
5.744,0.022870291,0.032126225,0.084135469,0.046280609,0.029141462890624997
5.748,0.02286999,0.032126762,0.084136875,0.046280477,0.029141294921874998
5.752,0.022869721,0.032128539062499996,0.084137578,0.046281383,0.029141128906249997
5.756,0.02287009,0.032128639,0.084136508,0.046281148437499996,0.029139082
5.76,0.022870057,0.032126594,0.084134992,0.046279473,0.029136904
5.764,0.022869553,0.032124984,0.084135398,0.046278699,0.029136635
5.768,0.022869084,0.032123879,0.084136,0.046278129,0.029138244
5.772,0.022869117,0.032124515624999996,0.084136977,0.046278129,0.029139552734374997
5.776,0.022868783,0.032125455,0.084135664,0.046277996093749996,0.02913982
5.78,0.022867978515624998,0.032125756,0.084134727,0.046277594,0.029141061
5.784,0.022867475,0.032125086,0.08413607,0.046277058593749996,0.02913801
5.788,0.022867174,0.032125152,0.08413657,0.046275949,0.029134490234374998
5.792,0.022868111,0.03212626,0.084136305,0.046275113281249995,0.029135496093749998
5.796,0.022868045,0.032126828,0.084135867,0.046275078,0.029137037
5.8,0.022867139,0.032126627,0.084136172,0.046274777,0.02913677
5.804,0.022867978515624998,0.032126662109374995,0.084136234,0.046275145,0.029136400390624997
5.808,0.022868111,0.032126662109374995,0.084137406,0.046275852,0.029138043
5.812,0.022867709,0.032126627,0.08413818,0.046276253906249995,0.029139484
5.816,0.022867306640624998,0.032127029,0.084138148,0.046275949,0.029138513671874998
5.82,0.022867375,0.03212723,0.084138617,0.046275382812499995,0.029138982421874998
5.824,0.022868414,0.032126527343749996,0.084139523,0.046275816406249996,0.029137709
5.828,0.022869051,0.032126092,0.084140492,0.04627659,0.029138479
5.832,0.022869219,0.032125488281249996,0.084140492,0.046276621,0.029138076
5.836,0.022869117,0.032125857,0.08414043,0.046276921874999995,0.029138378906249998
5.84,0.022868882812499998,0.03212723,0.084141133,0.046276621,0.029139217
5.844,0.022869017578124998,0.032128539062499996,0.084142906,0.046276789,0.029141229
5.848,0.022870156,0.032129008,0.084143547,0.046277124999999995,0.029143005859374998
5.852,0.022870592,0.032128975,0.084142773,0.046277828124999996,0.029143543
5.856,0.022871766,0.032129578124999995,0.084141906,0.046278867187499996,0.029144513671874997
5.86,0.022870994,0.032128773,0.084140492,0.046278297,0.029144513671874997
5.864,0.02287123,0.032127667968749996,0.084139992,0.046277023437499995,0.029141496
5.868,0.022871096,0.032126527343749996,0.084140766,0.046275046874999996,0.029139619
5.872,0.022870894531249998,0.032125857,0.084140594,0.046274175781249996,0.029139686
5.876,0.022871834,0.032126092,0.084139758,0.046274742187499995,0.029141027343749997
5.88,0.022873174,0.032125891,0.084140023,0.046274609,0.029140525390624998
5.884,0.022873309,0.032125219,0.084139656,0.046274609,0.029139451171874997
5.888,0.022872402,0.032124449,0.084139523,0.046274609,0.029139451171874997
5.892,0.022871900390624998,0.032123341796874996,0.084138516,0.046273738,0.029141294921874998
5.896,0.022871598,0.032123644531249995,0.084138852,0.046273672,0.029141195
5.9,0.022871396,0.032123813,0.084139156,0.046273605,0.029142033203124997
5.904,0.022871396,0.032123341796874996,0.084140594,0.046273938,0.029142234
5.908,0.022871096,0.03212284,0.08414157,0.046273906249999996,0.029142167968749997
5.912,0.022871396,0.032122369140624996,0.084141367,0.046274777,0.029143072
5.916,0.022873174,0.032122807,0.084140625,0.046274578,0.029143979
5.92,0.022873006,0.032122939,0.084139961,0.046274175781249996,0.029145050781249997
5.924,0.022872336,0.032122906,0.084139992,0.046273938,0.029142805
5.928,0.022871834,0.032122404,0.084139492,0.04627327,0.029140994140624998
5.932,0.022871666,0.032122470703124996,0.084138781,0.046273168,0.029142838
5.936,0.022872035156249998,0.032123242,0.084139117,0.046273168,0.029145354
5.94,0.022871834,0.032124146,0.084139789,0.04627327,0.029145519531249997
5.944,0.022871732,0.032124347656249996,0.084140063,0.046272465,0.029143576171874998
5.948,0.022872503906249998,0.03212418,0.084140125,0.046271762,0.029141631
5.952,0.022872470703124998,0.032123777,0.084139758,0.046272062499999995,0.029142066
5.956,0.022872402,0.032124314,0.084139187,0.046272164062499996,0.029141898437499997
5.96,0.022872236,0.032124684,0.08413882,0.046272094,0.029140457031249997
5.964,0.022872369140624998,0.032124783,0.08413932,0.046271762,0.029138847656249998
5.968,0.022871564,0.032125186,0.084140359,0.046271391,0.029139721
5.972,0.022871396,0.032125152,0.084140695,0.046272062499999995,0.029142603515624997
5.976,0.022872705,0.032124549,0.084140531,0.046272598,0.029146626953124997
5.98,0.022872102,0.032123879,0.084140195,0.046272230468749995,0.029145688
5.984,0.022872,0.032124582,0.084140391,0.046271492,0.029143342
5.988,0.022871798828124998,0.032125521484374996,0.084140695,0.046271859374999995,0.029142066
5.992,0.022871967,0.032124951,0.084139656,0.046271828,0.029141531249999998
5.996,0.022872672,0.032124582,0.084138617,0.046271156,0.029140793
6,0.022872503906249998,0.032124717,0.084138078,0.046269984374999996,0.029140156
6.004,0.022872336,0.032124515624999996,0.084138047,0.046268543,0.02913915
6.008,0.022872604,0.03212408,0.084138586,0.046266965,0.029139318
6.012,0.022872470703124998,0.032123074,0.084139555,0.04626616,0.02913858
6.016,0.022871732,0.032122437499999996,0.084139117,0.046265691,0.029139318
6.02,0.022872438,0.032122135,0.084139086,0.046265355,0.029136869140624997
6.024,0.022873074218749997,0.03212076,0.08413875,0.046265188,0.029136367187499998
6.028,0.022872470703124998,0.032119922,0.084139656,0.046264383,0.029139049
6.032,0.022872906,0.032119688,0.084139086,0.046263613,0.029139652
6.036,0.022873309,0.032119351562499995,0.084136844,0.046262371,0.029140289062499998
6.04,0.022874314,0.032118883,0.084136039,0.046260593749999995,0.029140727
6.044,0.022874146,0.03211848,0.084137172,0.046259722656249995,0.029140658
6.048,0.022872771,0.032118246,0.084138312,0.046259254,0.029141294921874998
6.052,0.022872638671874997,0.032118078,0.084137008,0.046258281,0.029140727
6.056,0.022871967,0.032118582031249995,0.084136672,0.046257812499999995,0.029140892578124997
6.06,0.022871264,0.032118816,0.084137406,0.046257812499999995,0.029141496
6.064,0.022872135,0.032118748,0.084137078,0.046257176,0.029139451171874997
6.068,0.022873242,0.032118547,0.084136172,0.046256137,0.029138646
6.072,0.022873644531249997,0.032118246,0.084135469,0.046255129,0.029138748
6.076,0.02287257,0.032117979,0.084134625,0.046254059,0.029138479
6.08,0.022871129,0.032117979,0.084135797,0.046253621093749996,0.029141128906249997
6.084,0.022870894531249998,0.032118145,0.084137477,0.046253656,0.02914324
6.088,0.022871967,0.032117777,0.084138312,0.046252984,0.029142871093749998
6.092,0.022873678,0.03211724,0.084137711,0.046252348,0.029143844
6.096,0.022873242,0.032117475,0.084136469,0.046251878906249995,0.029145519531249997
6.1,0.022872804687499998,0.032117576171874995,0.084135969,0.046251309,0.029140525390624998
6.104,0.022872438,0.032116435546874995,0.084135867,0.046249968749999995,0.029137874999999997
6.108,0.022872168,0.032116736,0.084136469,0.046249934,0.029137473
6.112,0.022871297,0.032117408203124996,0.084136305,0.046251441406249996,0.029139787
6.116,0.022870927734374998,0.032117643,0.084135133,0.046252313,0.029140055
6.12,0.022870828,0.032117207,0.084134461,0.046251441406249996,0.029138949218749998
6.124,0.02287227,0.032116871,0.084134898,0.046250973,0.029139283203124998
6.128,0.022873509765624998,0.032117475,0.084135563,0.046251578,0.029139787
6.132,0.022873408203124997,0.032118078,0.084135867,0.046251676,0.029140324
6.136,0.022873476562499998,0.03211915,0.084135563,0.046251578,0.029141094
6.14,0.022872503906249998,0.032119553,0.084135164,0.046251645,0.029139384765624998
6.144,0.022871633,0.032119084,0.084134828,0.046251375,0.029136434
6.148,0.022870792968749998,0.032118816,0.084134898,0.046251007812499995,0.029135328
6.152,0.022871129,0.032118045,0.084135469,0.046251441406249996,0.029136736
6.156,0.022872068359374997,0.032118213,0.084135328,0.046251812499999996,0.029138076
6.16,0.022873309,0.032118883,0.084134055,0.046252047,0.029138277343749998
6.164,0.022874213,0.032120023,0.084134289,0.046252281,0.029135295
6.168,0.022874482,0.032119419921874996,0.084135063,0.046252785,0.02913459
6.172,0.022873912,0.032118414062499996,0.08413543,0.046253621093749996,0.029138346
6.176,0.022873074218749997,0.03211791,0.084135703,0.046253555,0.029138982421874998
6.18,0.022873207,0.032116871,0.084135734,0.046252546874999995,0.029138445312499997
6.184,0.022872402,0.032116300781249996,0.084135836,0.046251812499999996,0.029137172
6.188,0.022871396,0.032115294921874996,0.084135297,0.046250468749999996,0.029136434
6.192,0.022871297,0.032115766,0.084135664,0.046249633,0.029136635
6.196,0.022872035156249998,0.032117408203124996,0.084135469,0.046249800781249996,0.029137373046874998
6.2,0.022872537,0.032118312499999996,0.084136508,0.046250773,0.029139652
6.204,0.022872369140624998,0.03211818,0.084137547,0.04625027,0.029139417968749998
6.208,0.022871666,0.032119084,0.084138883,0.046249429687499996,0.029138814
6.212,0.022871162,0.032119387,0.084139492,0.046249429687499996,0.02914049
6.216,0.022870961,0.032117777,0.084137312,0.046248895,0.029141631
6.22,0.022872068359374997,0.032117777,0.084137141,0.046248624999999995,0.029141496
6.224,0.022874080078124998,0.032117943,0.084138648,0.046248926,0.029139451171874997
6.228,0.022874684,0.032117742,0.084139422,0.04624923,0.029139519531249998
6.232,0.022874449,0.032117811,0.084138648,0.046250133,0.029141631
6.236,0.022874080078124998,0.032118012,0.084136938,0.046250636718749995,0.029142468749999997
6.24,0.022872,0.032118582031249995,0.084137977,0.046250168,0.029141094
6.244,0.022871432,0.032119587890624995,0.084140063,0.046250133,0.029143072
6.248,0.022872369140624998,0.03211915,0.084139219,0.046249597656249995,0.029141597656249997
6.252,0.022873374999999998,0.032118447265624996,0.084136602,0.046249465,0.029137742
6.256,0.022874248,0.032117643,0.084134391,0.046250203,0.029136835937499998
6.26,0.022874650390624997,0.032116333984374995,0.084134727,0.046250168,0.029138313
6.264,0.022873945312499998,0.032115832,0.084135703,0.046249363,0.029138145
6.268,0.022873174,0.032115631,0.084135734,0.046248859,0.029137709
6.272,0.022872973,0.032115967,0.084136742,0.046248426,0.029138277343749998
6.276,0.022873006,0.032115396484374996,0.08413607,0.046247621093749997,0.029135931640624998
6.28,0.022872168,0.032115328,0.084136469,0.046246949,0.029134154
6.284,0.022871633,0.032115865,0.084136367,0.046246613,0.029133953124999997
6.288,0.022870225,0.032115429687499995,0.084135563,0.046246113,0.029134088
6.292,0.022869822,0.032114961,0.084134391,0.046246414,0.029133014
6.296,0.022869921874999997,0.032114457,0.084132883,0.046246211,0.029133182
6.3,0.022869688,0.032114559,0.084133055,0.04624591,0.029134121
6.304,0.022869219,0.032114926,0.08413382,0.046245039,0.02913402
6.308,0.022868111,0.032114390624999996,0.084134156,0.046244602,0.029133919921874998
6.312,0.022867742187499998,0.032114223,0.084133688,0.04624477,0.029132779296874998
6.316,0.022868345703124997,0.032114357421874996,0.084133719,0.04624477,0.029133014
6.32,0.022867105,0.032114189,0.084133859,0.046244168,0.029133752
6.324,0.02286667,0.032114826,0.084133289,0.046242523437499995,0.029132445312499998
6.328,0.022867709,0.032115027,0.084132281,0.04624125,0.029130433593749998
