time,F8,F4,Fz,F3,F7
0,0.022225857,0.057843414062499994,0.074621875,0.014093969,0.060267527343749995
0.004,0.022219386718749998,0.057840598,0.074618016,0.014089275,0.060264008
0.008,0.022217742,0.057840563,0.074621031,0.014086426,0.060263805
0.012,0.022217742,0.057842273437499994,0.074625289,0.014084716,0.06026575
0.016,0.022215765624999998,0.057842676,0.074624922,0.014082971679687499,0.06026434
0.02,0.022212547,0.05784177,0.074622344,0.014081095,0.060261457
0.024,0.022205605,0.057838484,0.074618555,0.014077406249999999,0.060256664
0.028,0.0222046,0.057838688,0.074621672,0.014073081054687499,0.060255793
0.032,0.022205807,0.057841234374999995,0.07462482,0.014068454101562499,0.060256129
0.036,0.022202689,0.057841703,0.074623516,0.014062923,0.06025509
0.04,0.022198464843749998,0.057840964843749995,0.074620266,0.014059268,0.060253546874999994
0.044,0.022191625,0.057838285156249995,0.074615063,0.014056116210937499,0.060248551
0.048,0.022189513671874998,0.057837715,0.074617648,0.014053736,0.060248617
0.052,0.022190787,0.057838617,0.074621,0.014052395,0.060248719
0.056,0.022187703,0.05783852,0.074619859,0.014050015,0.060245531
0.06,0.022182371,0.05783852,0.074617812,0.014046762,0.060242113281249995
0.064,0.022176873,0.057836773437499996,0.074612281,0.014043142,0.060234972656249997
0.068,0.022176336,0.057836839843749994,0.074614828,0.014041063,0.060235172
0.072,0.022176806640624998,0.057838117187499996,0.074617812,0.014040325,0.060238191406249995
0.076,0.022174727,0.057837883,0.074617414,0.014038145507812499,0.060238156249999994
0.08,0.022171207031249997,0.057837042968749995,0.074613688,0.014036469,0.060235574
0.084,0.022164535156249998,0.057834527,0.074606648,0.014035060546874999,0.060230883
0.088,0.022162791,0.057834227,0.074609031,0.014034893554687499,0.060231148
0.092,0.022162523437499998,0.057836839843749994,0.074612953,0.014034356,0.060233395
0.096,0.022160646484374998,0.057837312499999995,0.074611609,0.014032412,0.060232254
0.1,0.022157863,0.057836742,0.074607859,0.014031474,0.060229273437499994
0.104,0.022151158,0.057833054687499996,0.074600547,0.014030468,0.060224609374999995
0.108,0.022151392578124998,0.057830973,0.074600383,0.014030669,0.06022327
0.112,0.022152633,0.057832082031249996,0.07460182,0.014031876,0.060223003906249996
0.116,0.02215052,0.057832046874999994,0.074598234,0.014033787,0.060219480468749996
0.12,0.022145994,0.057830738281249995,0.074592703,0.014037340820312499,0.060214922
0.124,0.022139055,0.057827723,0.074586297,0.014039285,0.060209188
0.128,0.022137377,0.057827285,0.074587234,0.014039822,0.060209324
0.132,0.022137813,0.057828961,0.074589648,0.014041364,0.060211535156249996
0.136,0.022135635,0.057829566,0.074588375,0.014041666015624999,0.060209089843749994
0.14,0.022132248,0.057829297,0.074583953,0.014041297,0.060204828
0.144,0.022126078,0.057826214843749994,0.074577617,0.014041599,0.060199566406249995
0.148,0.022124336,0.057824672,0.074578617,0.014042538085937499,0.060200437499999995
0.152,0.022125643,0.057826546874999996,0.074580367,0.014042906249999999,0.060201109
0.156,0.022124134765624998,0.057826816406249995,0.074577617,0.014042438,0.060199632812499994
0.16,0.022121417968749998,0.057825273,0.074573891,0.014041397460937499,0.060196918
0.164,0.022116623,0.057822359,0.074567023,0.014038983,0.060189875
0.168,0.022114646,0.057820984374999995,0.074568125,0.014038279,0.060188906
0.172,0.022114578,0.057822258,0.074570805,0.014039654296874999,0.060190378906249994
0.176,0.022111494,0.057822426,0.074569297,0.014040961914062499,0.060188168
0.18,0.022107371093749998,0.057821988,0.074565609,0.014042236328124999,0.060185652
0.184,0.022101268,0.057819406,0.074559844,0.014041196,0.060181762
0.188,0.022101402,0.057819309,0.074561656,0.014039586914062499,0.060181292968749994
0.192,0.022102642578124998,0.057820546874999997,0.074563531,0.014039218749999999,0.060181898
0.196,0.022100093749999997,0.057820516,0.074562195,0.014037609,0.060181328124999996
0.2,0.022097009765624998,0.057819910156249994,0.074559914,0.014034927,0.060179148437499996
0.204,0.022092383,0.057817562499999996,0.074552875,0.01403144,0.060170898437499995
0.208,0.022090539062499998,0.057816656249999994,0.074554547,0.014030769531249999,0.060169960937499996
0.212,0.022091611,0.057817664062499996,0.074557836,0.014032044,0.060172813
0.216,0.022090037,0.057817297,0.074556188,0.014033251,0.060172676
0.22,0.022085678,0.057817128906249994,0.074554281,0.014033116,0.060172140624999995
0.224,0.022080682,0.057815117,0.074546938,0.014031909,0.060166844
0.228,0.022079978515624998,0.057814445,0.074547242,0.014031003906249999,0.060164699
0.232,0.02207991,0.057816492,0.074550492,0.014032077148437499,0.060166039062499996
0.236,0.022077699,0.057817363,0.074548516,0.014033217,0.060164093749999994
0.24,0.022075553,0.057816894531249996,0.074544891,0.014033015624999999,0.060160508
0.244,0.022069416,0.057814145,0.074538391,0.014031775,0.060154504
0.248,0.02206707,0.057812769531249995,0.074539727,0.01403211,0.060154168
0.252,0.022067304687499997,0.057813976562499994,0.074543219,0.014033418,0.060156785156249996
0.256,0.022066365,0.057814078124999994,0.074540602,0.014033352,0.060154809
0.26,0.022064455,0.057812801,0.074536039,0.014031506835937499,0.060152929687499995
0.264,0.022059123,0.057809015624999995,0.074529703,0.014028858,0.060148234
0.268,0.022056173828124997,0.057807773437499994,0.074531148,0.014027886,0.060147800781249997
0.272,0.022057113,0.057810254,0.0745345,0.014028222,0.060148504
0.276,0.02205651,0.057810656249999995,0.074532117,0.014028892,0.060145387
0.28,0.022054229,0.057809785156249995,0.074527727,0.014028053710937499,0.060142301
0.284,0.022048932,0.057806031,0.074521453,0.014024533,0.060137406
0.288,0.022047523437499997,0.057804355,0.0745235,0.014021784,0.060137172
0.292,0.022049301,0.057805425781249996,0.074526281,0.014020846,0.060138379
0.296,0.022046785,0.057805156249999996,0.074525477,0.014019639,0.060137574218749996
0.3,0.022043767578124998,0.057804656249999996,0.074522664,0.014017492,0.060136937499999994
0.304,0.022038236,0.057802609374999994,0.07451693,0.014014676,0.060132711
0.308,0.022036861,0.057802273437499996,0.074518305,0.014014072,0.060132043
0.312,0.022039308593749998,0.05780432,0.074520984,0.014015615234374999,0.060132644531249994
0.316,0.02203666,0.057804422,0.074520516,0.014016419921874999,0.060131906
0.32,0.022034648,0.057803551,0.074517266,0.014016486,0.060129257812499996
0.324,0.022029084,0.057800632812499995,0.074510695,0.014015146,0.060122285
0.328,0.022027475,0.057799492187499996,0.074511266,0.014014811,0.060121917968749994
0.332,0.02202791,0.057799961,0.074513914,0.014015648,0.060124429687499995
0.336,0.022025094,0.057799359,0.074512508,0.014015213,0.060126879
0.34,0.022024088,0.057798184,0.07450868,0.01401414,0.060125941406249994
0.344,0.022018791,0.057795265624999995,0.074500672,0.014012965820312499,0.060120809
0.348,0.022018052734374998,0.057794363,0.074501539,0.014012396,0.060119234
0.352,0.022020031,0.057794934,0.074503852,0.014013201,0.060119336
0.356,0.022016945312499998,0.057794429687499996,0.074503352,0.014013267578124999,0.060118461
0.36,0.02201366,0.057793523437499994,0.074501711,0.014013402,0.060116988
0.364,0.022008429687499997,0.057790039,0.074496984,0.014012564,0.060112863
0.368,0.022005982,0.057788996093749996,0.074499961,0.014012798828124999,0.060114172
0.372,0.022006889,0.05779091,0.074504258,0.014015179,0.060116214843749995
0.376,0.022005313,0.057790773,0.074502313,0.014018532,0.060114707
0.38,0.022003871,0.057789566,0.074500234,0.014021382,0.060111355468749995
0.384,0.021998841796874998,0.057786617,0.074494367,0.014021917968749999,0.060105488281249994
0.388,0.021996561,0.057785343749999996,0.074497047,0.014022354,0.060105723
0.392,0.021999175781249998,0.057786179687499994,0.074500398,0.014021952148437499,0.060106727
0.396,0.021997902,0.057786449218749994,0.074500031,0.014020208,0.060105824
0.4,0.021997232,0.057785645,0.074498555,0.014018163085937499,0.060103441
0.404,0.021993176,0.057782359374999995,0.074492727,0.014016319,0.060095629
0.408,0.021991398,0.057781188,0.074495102,0.01401595,0.060094559
0.412,0.02199351,0.057782996,0.074500633,0.014015146,0.060095296874999996
0.416,0.021992303,0.057784406249999996,0.074501641,0.014014106445312499,0.060091406
0.42,0.021989185546874998,0.057784101562499995,0.074500438,0.014012295898437499,0.060088152
0.424,0.021983051,0.057781355,0.074495977,0.014007836914062499,0.060083863
0.428,0.02198134,0.057779308593749995,0.074498492,0.014003746,0.060083258
0.432,0.021982412,0.057779410156249995,0.074503016,0.014001366,0.060084800781249996
0.436,0.021981039,0.057779308593749995,0.074503555,0.013998516,0.060083023437499994
0.44,0.021977719,0.057778805,0.074502477,0.013997409,0.060079336
0.444,0.021972221,0.05777582,0.074497047,0.013995565429687499,0.060073402
0.448,0.021971416,0.057774883,0.074499227,0.013994358,0.060070418
0.452,0.021974466796874998,0.057775988281249996,0.074503453,0.013994962,0.060070117187499994
0.456,0.021973729,0.057776289,0.074504359,0.013994257812499999,0.060068640624999996
0.46,0.021969437499999998,0.057774781,0.074502078,0.013994693,0.060066664
0.464,0.021962330078124998,0.05777173,0.074497219,0.01399466,0.060060996
0.468,0.021960787109374998,0.057770188,0.074499023,0.013995833984374999,0.060059890624999994
0.472,0.021962027,0.057771598,0.074504523,0.013998314453124999,0.060061902343749994
0.476,0.021959949,0.057772367,0.07450607,0.01400026,0.060062102
0.48,0.021959177734374998,0.057771563,0.074503484,0.014001969726562499,0.060060059
0.484,0.021954484,0.057768176,0.07449668,0.014002908,0.060053957
0.488,0.021951701171874997,0.057767105468749996,0.074499227,0.01400435,0.060052613
0.492,0.021953244140624998,0.057769953124999995,0.074504961,0.014005791,0.060054727
0.496,0.021952641,0.057770992187499995,0.07450493,0.014005825,0.060051039
0.5,0.02194932,0.057770559,0.074502047,0.014007367,0.060047082
0.504,0.021944191,0.057767773437499996,0.074495336,0.014006998,0.060039875
0.508,0.021943587890624998,0.057766637,0.074496477,0.014005288,0.060038164062499996
0.512,0.021945029296874998,0.057767844,0.074500062,0.014003914,0.060038734
0.516,0.02194275,0.057768512,0.074500969,0.014001332031249999,0.060037227
0.52,0.021940101562499998,0.057769183593749995,0.074499062,0.013999890624999999,0.060033941
0.524,0.021931886718749998,0.057767605,0.074494969,0.013998248,0.060028641
0.528,0.021929740234374998,0.057766535,0.074497648,0.013997242,0.060029012
0.532,0.021931619,0.057767676,0.074501008,0.013997041,0.060030386718749995
0.536,0.021929406,0.057766902343749996,0.074500203,0.01399684,0.060028074
0.54,0.021926656,0.057765328124999994,0.074498555,0.013996571289062499,0.060025758
0.544,0.021919883,0.057761605,0.074493023,0.01399761,0.060020160156249995
0.548,0.021916666,0.057759394531249994,0.074496477,0.014000427,0.060019992187499996
0.552,0.021919045,0.057761641,0.074502008,0.014003578124999999,0.060022305
0.556,0.021918945,0.057762777343749995,0.074501141,0.014003679,0.060020027
0.56,0.021916531,0.057762848,0.074498992,0.014003578124999999,0.060019390624999995
0.564,0.021911669921874998,0.057760297,0.074493258,0.014003578124999999,0.060013687499999996
0.568,0.021910596,0.057759293,0.074495039,0.014003276,0.060012516
0.572,0.021914285156249998,0.057762746,0.074500164,0.014003545,0.060013890624999996
0.576,0.021914922,0.057762710937499996,0.074498289,0.014003009,0.060009664062499996
0.58,0.021912003906249998,0.057761738281249995,0.074496344,0.014002237,0.060006379
0.584,0.021907076171874998,0.057758453,0.074490242,0.014001668,0.059999676
0.588,0.021905299,0.05775691,0.074491883,0.013999924,0.059996793
0.592,0.021906373,0.05775775,0.07449718,0.014000326171874999,0.059999574
0.596,0.021904965,0.057757617,0.074497516,0.014001734,0.059997863281249994
0.6,0.021903086,0.057757113281249994,0.074495641,0.014003176,0.059993437499999996
0.604,0.021896984374999998,0.05775423,0.074488195,0.014002338,0.059984086
0.608,0.021894234,0.057753191406249994,0.074490109,0.014002874023437499,0.059982207
0.612,0.021897554687499998,0.057755636718749996,0.074496547,0.014004483,0.059985055
0.616,0.021897756,0.05775557,0.074496375,0.014005355,0.059984016
0.62,0.021894771,0.057755,0.074495203,0.014007032226562499,0.059983949
0.624,0.021888637,0.057752555,0.074491117,0.014008205078124999,0.059980027
0.628,0.021886256,0.057750843749999996,0.074493359,0.014009009765624999,0.059980027
0.632,0.021888333984374998,0.057752753906249996,0.074498789,0.014009748,0.05998127
0.636,0.021886959,0.057753624999999996,0.074498594,0.014009748,0.059980429687499996
0.64,0.021884712890624998,0.057752789,0.074497719,0.014008038085937499,0.059978184
0.644,0.021879617,0.057749769531249995,0.074492992,0.014005557,0.059971445312499996
0.648,0.021878107421874998,0.057748062499999996,0.074494031,0.014004584,0.059968257812499995
0.652,0.021880119140624998,0.05775034,0.074498789,0.014004417,0.059969433593749996
0.656,0.021878947,0.057750777,0.074497586,0.014004148437499999,0.059966347656249995
0.66,0.021875258,0.057750105,0.074495273,0.014002941406249999,0.059963832
0.664,0.021869357,0.057746383,0.074489336,0.014000829101562499,0.059958035
0.668,0.02186758,0.057744137,0.074490445,0.013998784,0.059956691
0.672,0.021869727,0.057745882812499996,0.074495609,0.013997644531249999,0.059960312499999995
0.676,0.021867814,0.057746050781249995,0.074495203,0.01399751,0.059959406
0.68,0.021865133,0.057745578124999995,0.074493961,0.013997074218749999,0.059957797
0.684,0.021858695,0.057742227,0.074488867,0.013995565429687499,0.059952535
0.688,0.021856584,0.057740183593749994,0.074490977,0.013994929,0.059952
0.692,0.021860472656249998,0.057742227,0.074494805,0.013995364257812499,0.059954480468749995
0.696,0.021859936,0.057742125,0.074493695,0.0139959,0.059953507812499994
0.7,0.021856717,0.057740953124999994,0.074493391,0.013995129882812499,0.059952
0.704,0.021851822265624998,0.057737602,0.074487594,0.013994728,0.059943281249999994
0.708,0.021849309,0.05773559,0.07448843,0.013994559570312499,0.059941136718749996
0.712,0.021850012,0.057737063,0.074493289,0.013996538,0.059945863
0.716,0.021850347656249998,0.05773723,0.074491984,0.0139959,0.059944050781249994
0.72,0.021849039,0.057735688,0.074488937,0.013993621093749999,0.059938921874999995
0.724,0.02184267,0.057732300781249996,0.074483602,0.013992178710937499,0.059932082
0.728,0.021842,0.057729555,0.074484039,0.013990838,0.059928628906249996
0.732,0.021843408203124998,0.05773123,0.074490172,0.013989731445312499,0.059930844
0.736,0.021841965,0.057731664,0.074490109,0.013988189,0.059928832
0.74,0.021840859,0.057731129,0.074488227,0.013987083,0.059924203
0.744,0.0218364,0.057729285,0.074483234,0.0139843,0.059915621093749996
0.748,0.021834254,0.057727441406249996,0.074484508,0.013981483,0.059912738281249996
0.752,0.021834623046874998,0.057728781,0.07449182,0.013980311,0.059917465
0.756,0.021835127,0.057728781,0.074491281,0.013977964,0.059916324
0.76,0.021834052734374998,0.05772791,0.07448843,0.013975113,0.059914714843749994
0.764,0.021827648,0.057723785,0.074481789,0.013971995,0.059910289
0.768,0.021826174,0.057719292968749995,0.074482563,0.013968642578124999,0.059909352
0.772,0.021828186,0.057720301,0.074487828,0.013966027,0.059911867187499995
0.776,0.02182718,0.057720871,0.074487523,0.013963378906249999,0.059910523437499995
0.78,0.021824564,0.057719863,0.07448568,0.013961166,0.059907371093749995
0.784,0.021817322265624998,0.057717484374999996,0.07448132,0.013959825,0.059900734
0.788,0.021815713,0.057716410156249995,0.0744825,0.013958886718749999,0.059899695312499994
0.792,0.021820877,0.057719292968749995,0.074486688,0.013958786,0.059901172
0.796,0.021821916015624998,0.057719292968749995,0.07448357,0.013957914,0.05989775
0.8,0.021818697,0.057717887,0.074481523,0.013955902,0.059896746093749995
0.804,0.021812830078124998,0.057715304687499996,0.074475555,0.013955131,0.059891414062499995
0.808,0.021811253906249998,0.057714062499999996,0.074475789,0.013954896,0.059889906
0.812,0.021813535156249998,0.057716410156249995,0.074481258,0.013955064453124999,0.059892754
0.816,0.021812695312499998,0.057717785,0.074481727,0.013953086,0.05988984
0.82,0.021811891,0.057718188,0.074478477,0.01395161,0.059885378906249995
0.824,0.021806729,0.057715808593749994,0.074470828,0.013949398,0.059878371
0.828,0.021804281249999998,0.057714332031249996,0.074471633,0.013947151367187499,0.05987666
0.832,0.021806896484374998,0.057716477,0.074477203,0.013946749,0.059879645
0.836,0.021806996,0.057715977,0.074476766,0.013946246,0.059878238281249996
0.84,0.02180485,0.057714465,0.074473945,0.013944269,0.05987559
0.844,0.021799184,0.057711215,0.074468547,0.013940882,0.059870257812499994
0.848,0.021796938,0.057709637,0.074470125,0.013938769531249999,0.059868684
0.852,0.021799084,0.057711785,0.074476867,0.013938065429687499,0.059871832031249995
0.856,0.021798045,0.057711617187499994,0.074477203,0.013937932,0.059871867
0.86,0.021795598,0.057711179687499996,0.074477469,0.013936757812499999,0.059870894531249996
0.864,0.021789529,0.057709371093749996,0.07447368,0.01393592,0.059865664
0.868,0.021787182,0.057707996,0.074476766,0.013936523437499999,0.059863718749999996
0.872,0.021790132812499998,0.057710105468749995,0.074482164,0.013937999,0.059865262
0.876,0.021790367,0.057711246093749995,0.074482695,0.013937429,0.059865195312499994
0.88,0.021789730468749997,0.057710543,0.074481125,0.01393535,0.059862914062499994
0.884,0.0217846,0.057707527343749995,0.074476328,0.013932366,0.059857851562499995
0.888,0.021782354,0.057706285156249995,0.074478945,0.013929147,0.059855641
0.892,0.02178299,0.057708230468749996,0.074485813,0.013927304,0.059857515624999996
0.896,0.021781549,0.057709035,0.074486555,0.013925191406249999,0.059858355
0.9,0.021780041015624998,0.057707961,0.074484914,0.013922643,0.059857418
0.904,0.021775145,0.05770548,0.074480383,0.013917915,0.059852019531249995
0.908,0.021774105,0.057703503906249995,0.074480586,0.013913724609374999,0.059849
0.912,0.021775748046874998,0.057704809,0.074484977,0.013912953124999999,0.059851383
0.916,0.021775078,0.057704003906249995,0.07448407,0.013912148437499999,0.059850878906249995
0.92,0.021773604,0.057702797,0.0744825,0.013910875,0.059848934
0.924,0.021768473,0.057700148437499994,0.074477633,0.013908562,0.059844742187499994
0.928,0.021765389,0.057698273437499996,0.074478539,0.013906818,0.059846152
0.932,0.02176683,0.057699648,0.074483305,0.013905813,0.059849504
0.936,0.021766395,0.057700316,0.074483031,0.013905443,0.059847156
0.94,0.021765187499999998,0.057699613,0.074481758,0.013905511,0.059845582
0.944,0.021760593749999998,0.057696527,0.074476563,0.013905375976562499,0.059842562499999995
0.948,0.021758047,0.057695187499999995,0.074477,0.013906248,0.059841457031249996
0.952,0.021758516,0.057696293,0.074482094,0.013908494,0.059845046874999995
0.956,0.021758011718749998,0.057698039,0.074482531,0.013909130859374999,0.059844574218749995
0.96,0.021756873,0.057698875,0.07448082,0.013908729,0.059843133
0.964,0.021753252,0.057696761718749996,0.074473914,0.013908024,0.059837168
0.968,0.021750268,0.057694214843749994,0.074472906,0.01390779,0.059834753906249996
0.972,0.021751844,0.057694449,0.074476492,0.013908896484374999,0.059837168
0.976,0.021749396,0.057694281,0.074477438,0.013910472656249999,0.059836628906249995
0.98,0.021747886718749998,0.057694917968749995,0.074477367,0.013910438,0.059836059
0.984,0.021744836,0.057692906249999995,0.074472508,0.013907622070312499,0.059831566406249995
0.988,0.021741551,0.0576915,0.074472844,0.013905141601562499,0.059828617187499995
0.992,0.02174326,0.057692605,0.074475789,0.013903901367187499,0.059828047
0.996,0.021742926,0.057691265624999995,0.074474281,0.013901855,0.059825969
1,0.021740109,0.057689891,0.074473078,0.013899207,0.059825598
1.004,0.021735281,0.057687813,0.074469055,0.013896224,0.059822113
1.008,0.021731559,0.057685734,0.074468445,0.013894748046874999,0.059819664
1.012,0.021731861328124998,0.057685734,0.074472641,0.013895318359374999,0.059819664
1.016,0.021731928,0.057684828,0.074472742,0.013894982421874999,0.059817687499999994
1.02,0.02173052,0.057683016,0.074470227,0.013894446,0.059815941406249996
1.024,0.021726832,0.05767943,0.074464594,0.013893608,0.059811082
1.028,0.021724082031249998,0.057676211,0.074464859,0.013893809570312499,0.059809238281249996
1.032,0.021723511718749998,0.057676512,0.074469484,0.01389515,0.059810378906249996
1.036,0.021723982,0.057677316,0.07446932,0.013895485351562499,0.059808199
1.04,0.021723848,0.057677820312499996,0.074468781,0.013895721,0.059806085937499996
1.044,0.021720328,0.057675808593749996,0.074465367,0.013895318359374999,0.059804039062499995
1.048,0.021717443359374998,0.0576745,0.074465461,0.013895821289062499,0.059804511718749995
1.052,0.02171798,0.057676011718749996,0.074469727,0.013896256835937499,0.059807594
1.056,0.021718718749999998,0.057676816,0.074469625,0.013895049804687499,0.059805011718749995
1.06,0.021718953,0.057675406,0.074468547,0.013892300781249999,0.05980384
1.064,0.021716103515624998,0.057672656249999996,0.074464094,0.013890591,0.059801359374999995
1.068,0.021713186,0.057670710937499994,0.074463117,0.013890021,0.059799379
1.072,0.021713621,0.057671082031249994,0.074466133,0.013889987304687499,0.059800891
1.076,0.021712717,0.057671449,0.07446543,0.013889752,0.059802332031249995
1.08,0.021712449,0.057671348,0.074464125,0.013890591,0.059802531
1.084,0.021708458984374998,0.057669738,0.074459531,0.013891462,0.059798879
1.088,0.021706480468749997,0.05766877,0.074459562,0.01389163,0.059797402
1.092,0.021708357421874998,0.057669707031249996,0.07446275,0.013893038,0.059797973
1.096,0.021708559,0.057670042968749995,0.074460672,0.013893105,0.059796730468749996
1.1,0.021707486328124997,0.057669539,0.074458023,0.013893473632812499,0.059795594
1.104,0.021703730468749998,0.057667629,0.07445232,0.013894547,0.059791434
1.108,0.021701384765624998,0.057665012,0.07445075,0.013894715,0.059788652
1.112,0.021701384765624998,0.057664980468749995,0.074454133,0.013895988281249999,0.059790059
1.116,0.021700512,0.057664844,0.074454469,0.013895753906249999,0.059789625
1.12,0.021699707031249998,0.057664512,0.074453695,0.013895352,0.059789054687499996
1.124,0.021695852,0.057662734,0.074448336,0.013895653,0.059784359
1.128,0.021694377,0.057660988,0.074447492,0.01389562,0.059781007812499995
1.132,0.021695416,0.057661426,0.074451016,0.013896961,0.059783051
1.136,0.021695886718749998,0.057660519531249996,0.074450711,0.013898234374999999,0.059783855468749994
1.14,0.021694343749999997,0.057659414,0.074449437,0.013899743164062499,0.059783289062499995
1.144,0.021689615234374997,0.057657,0.074445078,0.013900313476562499,0.059778929687499996
1.148,0.021686633,0.057655156,0.074444344,0.013898804687499999,0.059776414
1.152,0.021687369,0.057656297,0.074448234,0.013897866,0.059778359
1.156,0.02168633,0.057656832,0.074449609,0.013896558593749999,0.059778293
1.16,0.021685191,0.057657703124999994,0.074448836,0.013896793,0.059776078
1.164,0.021681636718749998,0.057656063,0.074443469,0.013897128,0.059771184
1.168,0.021677982,0.057654417968749996,0.074442969,0.013897899,0.059769406
1.172,0.021679457,0.057655660156249997,0.074447094,0.013899944,0.059771148
1.176,0.021681334,0.057656063,0.074446758,0.013899877929687499,0.059772156
1.18,0.021681402,0.057655289,0.074445586,0.013899005859374999,0.059772894531249995
1.184,0.021677914062499998,0.05765234,0.074440617,0.013899240234374999,0.059768601562499996
1.188,0.021675232,0.057649589843749995,0.074440055,0.013900414,0.059767195
1.192,0.021675602,0.057649859374999994,0.074443938,0.013904404296874999,0.059769777
1.196,0.021673959,0.057650262,0.074443906,0.013908024,0.059770145
1.2,0.021673523437499998,0.05765043,0.074442227,0.013910573,0.059768972656249995
1.204,0.021669968749999997,0.057649457,0.074438477,0.013911512,0.05976498
1.208,0.021668023,0.057646875,0.074441492,0.013911813,0.059762133
1.212,0.02166923,0.057646437499999995,0.07444793,0.013913591,0.059761898437499995
1.216,0.021668561,0.057646437499999995,0.074449844,0.013916407,0.059760254
1.22,0.021667386718749997,0.057646004,0.074451383,0.013917982421874999,0.059760554687499995
1.224,0.021662961,0.057643992,0.074448836,0.013919089,0.059757539
1.228,0.021661051,0.057642316,0.074449508,0.013919860351562499,0.059754890624999994
1.232,0.021663967,0.057644191406249996,0.074456242,0.013922374999999999,0.059757371
1.236,0.021665041015624997,0.05764493,0.074457953,0.013924553710937499,0.059757371
1.24,0.021663029,0.057643421874999996,0.074457922,0.013927337,0.05975707
1.244,0.021657967,0.057640437499999995,0.074455141,0.013930019,0.059754922
1.248,0.021655016,0.057639261718749994,0.074456078,0.013931695312499999,0.059755125
1.252,0.021657529,0.057641777,0.074462445,0.013933774414062499,0.059758578124999996
1.256,0.021658637,0.057642718749999995,0.074462648,0.013935082031249999,0.059757805
1.26,0.021659174,0.057641746093749995,0.074460367,0.01393364,0.059755156
1.264,0.021654345703124998,0.057638762,0.074455406,0.013931326,0.059749926
1.268,0.021650052734374998,0.057636113,0.07445457,0.013929013,0.059746609374999995
1.272,0.021652199218749998,0.057636445,0.074460773,0.013929013,0.059748621093749996
1.276,0.021651998,0.057636984,0.074461445,0.01392908,0.05975023
1.28,0.021651227,0.057636949,0.07446,0.013929985,0.059749324
1.284,0.021646936,0.057633664,0.074454602,0.013930153,0.059743992
1.288,0.021642443,0.057630312499999996,0.074454938,0.013930019,0.059741445312499995
1.292,0.021643582,0.057632390624999995,0.074461844,0.013930923828124999,0.059746273
1.296,0.021641771,0.057634602,0.074463922,0.013931863,0.059748922
1.3,0.021642711,0.057634602,0.074460469,0.013932499999999999,0.059745097656249996
1.304,0.021639459,0.057630746,0.074453195,0.013931627929687499,0.059738426
1.308,0.021635402,0.057628132812499996,0.074452492,0.013931259765624999,0.059736214843749996
1.312,0.021636576171874998,0.057629742,0.07445893,0.013932802,0.059741211
1.316,0.021636375,0.057630480468749995,0.074459062,0.013934545,0.059741781
1.32,0.021635805,0.057630312499999996,0.074457148,0.013934579101562499,0.059740203124999995
1.324,0.021631546874999998,0.057627629,0.074450648,0.013933104,0.059736684
1.328,0.021629166,0.057624781,0.074447898,0.013932332,0.059732594
1.332,0.021633156,0.057625484374999994,0.074452859,0.013933438476562499,0.059736887
1.336,0.021632988281249998,0.057626187499999995,0.074453727,0.013934947265624999,0.059737758
1.34,0.021629232,0.057627395,0.074453695,0.013935953124999999,0.059736011718749996
1.344,0.021625143,0.057625785,0.074446117,0.013936389648437499,0.059729140624999996
1.348,0.021621890624999997,0.057622867187499996,0.074442969,0.013936322265624999,0.059724379
1.352,0.021624104,0.057623473,0.074448805,0.013938233,0.059728402
1.356,0.021623266,0.057623504,0.074449,0.013940211,0.059729879
1.36,0.021619443,0.057622367187499995,0.074447094,0.013940814453124999,0.059730144531249994
1.364,0.021614381,0.05761898,0.074440289,0.013940547,0.059725453124999994
1.368,0.021611463,0.057615457,0.074436969,0.013941083007812499,0.059721797
1.372,0.021613943,0.057615859374999995,0.0744425,0.013943195,0.059725051
1.376,0.021613240234374997,0.057616664062499996,0.074444172,0.013944938,0.059726121093749994
1.38,0.021612469,0.057616531,0.074443102,0.013944269,0.059725554687499995
1.384,0.021607674,0.057615055,0.074437703,0.01394343,0.059721093749999996
1.388,0.02160365,0.057613781249999996,0.074437734,0.013944469726562499,0.059718812499999996
1.392,0.021607307,0.05761643,0.074443172,0.013946515,0.059722434
1.396,0.021607775,0.057617101562499995,0.074442602,0.013947453,0.059723207031249996
1.4,0.02160801,0.057616499999999994,0.074439813,0.013948694,0.0597225
1.404,0.021604523,0.057612879,0.074432844,0.013947956054687499,0.059716566
1.408,0.021601271,0.057609492,0.074431031,0.013946582,0.059713414
1.412,0.021603484,0.057610664,0.074436195,0.013948124,0.059717171874999996
1.416,0.021603484,0.057612375,0.074436898,0.013948929,0.059717305
1.42,0.021602377,0.057613449218749994,0.074435594,0.013949464843749999,0.059716132812499996
1.424,0.021599929687499998,0.057611035,0.074429219,0.013949432,0.059711035156249995
1.428,0.02159718,0.057607883,0.074426438,0.013948627,0.059706813
1.432,0.021600467,0.057608855,0.074431469,0.013950136,0.059709191
1.436,0.021600701,0.057609895,0.074431164,0.013952382,0.059709762
1.44,0.02160117,0.057609257812499995,0.074428047,0.013955064453124999,0.059709762
1.444,0.021596744,0.057606609,0.074420102,0.013958115234374999,0.059703624999999996
1.448,0.021592419921874998,0.057603457,0.074417992,0.013961468,0.059700543
1.452,0.021596007812499998,0.057604761718749994,0.074423523,0.013965357,0.059703926
1.456,0.02159651,0.057605871,0.074423391,0.013967805,0.059704832031249995
1.46,0.021592654,0.057605835937499995,0.074421547,0.013971895,0.059704765624999996
1.464,0.021587727,0.057603925781249996,0.074415578,0.013976588867187499,0.059699805
1.468,0.021584508,0.05760141,0.074413359,0.013978936,0.059696886718749995
1.472,0.021588229,0.057602383,0.074418023,0.013982992,0.059699972656249996
1.476,0.021588531249999997,0.057602754,0.074417523,0.013987216796874999,0.059700543
1.48,0.02158615,0.057602316,0.074415406,0.013990335,0.059701078124999994
1.484,0.021581725,0.057600473,0.074409406,0.013992547851562499,0.059696921874999996
1.488,0.021579244,0.057597621093749996,0.074405414,0.013993521,0.059693703
1.492,0.021582496,0.057596953124999996,0.074406688,0.013994593,0.059694676
1.496,0.021582461,0.057596078,0.074404477,0.013996739,0.059692425781249996
1.5,0.021581289062499998,0.057595007812499995,0.074402734,0.013997644531249999,0.059688805
1.504,0.021575756,0.05759209,0.07439757,0.013997778,0.059683141
1.508,0.021570492,0.057589309,0.074394953,0.013998516,0.059678445312499995
1.512,0.021571867,0.057590516,0.074400289,0.014000326171874999,0.059682973
1.516,0.021571498,0.057592191,0.074401766,0.014001567,0.05968532
1.52,0.021569822,0.057592461,0.074400687,0.014002773,0.059684414062499996
1.524,0.021565799,0.057590046874999995,0.074396031,0.014002472,0.059680390624999996
1.528,0.021562211,0.057586894531249995,0.074395461,0.014001366,0.059677609374999996
1.532,0.021565697,0.057588906249999995,0.074402,0.014001165,0.059681934
1.536,0.021566468749999998,0.057590145,0.074402766,0.013999455078124999,0.059682300781249996
1.54,0.021563754,0.05759018,0.07440418,0.013997175,0.059682805
1.544,0.021557517578124998,0.057589039,0.074401664,0.013995264,0.059680660156249996
1.548,0.02155517,0.057587562499999995,0.074402164,0.013992012,0.059678414
1.552,0.021558926,0.057589406249999996,0.074408164,0.013989999999999999,0.059680457031249995
1.556,0.021559964843749998,0.05759018,0.074408938,0.013987586,0.059679285
1.56,0.021558188,0.057589309,0.074409273,0.013983428710937499,0.059679184
1.564,0.021552789062499998,0.057586894531249995,0.07440525,0.01397897,0.059675328124999996
1.568,0.021548867187499997,0.057583574218749996,0.07440475,0.013973503906249999,0.059673719
1.572,0.021552353515624997,0.057585855468749995,0.074412859,0.013968542,0.05967791
1.576,0.021554299,0.057587562499999995,0.074414234,0.013963446289062499,0.059676804687499994
1.58,0.021552455078124998,0.057587562499999995,0.074415203,0.013958651,0.059675094
1.584,0.02154833,0.057585418,0.074411188,0.013952817,0.059670367
1.588,0.021544979,0.057581999999999994,0.074410477,0.013945944,0.059665269531249995
1.592,0.021548063,0.057582836,0.074418758,0.013940278,0.059668289
1.596,0.021549002,0.057584445312499996,0.074420641,0.013934076171874999,0.059668891
1.6,0.021547726562499998,0.057584648,0.074421141,0.013927203124999999,0.059668957
1.604,0.021543033,0.057582601562499995,0.074416813,0.013918619,0.059664332031249996
1.608,0.02153834,0.057579918,0.074415945,0.013909902343749999,0.05966091
1.612,0.021541658203124998,0.057581628906249994,0.074422883,0.013903901367187499,0.059666109
1.616,0.021542631,0.057583238,0.074424461,0.013897731445312499,0.059667148
1.62,0.021539514,0.057582836,0.074423992,0.013891227539062499,0.059666609
1.624,0.021534484,0.057580859374999994,0.074419531,0.013885091796874999,0.059661547
1.628,0.021531064,0.057578109,0.074417523,0.013879627,0.059655781
1.632,0.021533479,0.057578613281249996,0.074422719,0.013876341,0.05965873
1.636,0.021533377,0.057577437499999995,0.074422117,0.013873357,0.059657559
1.64,0.021531064,0.057574218749999996,0.074420937,0.013870641601562499,0.059655379
1.644,0.021526438,0.057569390624999994,0.074415039,0.013865746093749999,0.059650652
1.648,0.021521441406249998,0.057565168,0.074412625,0.013859846,0.059647703
1.652,0.021523688,0.057566074,0.074418992,0.013857230468749999,0.059652797
1.656,0.021524525,0.057566171874999995,0.074419703,0.013855453,0.059653703
1.66,0.021523285,0.057564867,0.074418664,0.013852302,0.059653031249999995
1.664,0.021518859374999998,0.057562351562499996,0.074413969,0.013848345703124999,0.059650082031249996
1.668,0.021515037,0.057559570312499996,0.074411086,0.013843618,0.059647633
1.672,0.021517820312499998,0.057560070312499996,0.074415477,0.013842076171874999,0.05965109
1.676,0.021518625,0.057560641,0.074415445,0.013842411,0.059650922
1.68,0.021516279,0.057560339843749996,0.074413227,0.013842411,0.059649914
1.684,0.021511818,0.057557558593749995,0.074406758,0.013840668,0.059644617
1.688,0.021506891,0.057552863,0.074402266,0.013838153,0.059640191406249994
1.692,0.0215085,0.057552059,0.07440857,0.013836979,0.059645890624999996
1.696,0.021508232,0.057552965,0.074409375,0.013835807,0.05964723
1.7,0.021507092,0.057552965,0.074406117,0.013833896,0.059645085937499995
1.704,0.021502432,0.057549441,0.07439975,0.013832521,0.059641363
1.708,0.021497871,0.057545152343749996,0.0743965,0.013832018,0.059636637
1.712,0.021499951,0.057546727,0.074402094,0.013833928710937499,0.059639555
1.716,0.021500185546874998,0.057548137,0.074401562,0.013835739,0.059640797
1.72,0.021498375,0.057547699,0.07440025,0.013836677734374999,0.059639891
1.724,0.021494184,0.057544882812499996,0.074394523,0.013837482,0.059636402
1.728,0.021489556640624997,0.057541296874999995,0.07439093,0.013837180664062499,0.059634089843749995
1.732,0.021492607,0.057541766,0.074397469,0.013838455078124999,0.059639219
1.736,0.021493514,0.057542101562499996,0.074398883,0.013839629,0.059641633
1.74,0.021490964843749998,0.057541296874999995,0.074397469,0.013839762695312499,0.059641062499999994
1.744,0.021485164,0.057539586,0.074392508,0.013838321289062499,0.059637207
1.748,0.02148151,0.05753677,0.074388992,0.013835772,0.059632043
1.752,0.021483455078124998,0.057537676,0.074394523,0.013834834,0.059634960937499995
1.756,0.021482617,0.057539183593749994,0.074396266,0.013833795,0.059636703124999996
1.76,0.021482215,0.057538914062499995,0.074395758,0.013831079,0.059637039062499994
1.764,0.021477588,0.057536469,0.074391437,0.013827659,0.059634156
1.768,0.021472625,0.057533316,0.074390594,0.013825145,0.059631172
1.772,0.021475006,0.057534121093749994,0.074398477,0.013823166,0.059635765624999997
1.776,0.021476348,0.057534925781249996,0.074399211,0.013822664,0.059635531
1.78,0.021474906,0.057533683593749996,0.074397406,0.013821289062499999,0.059633652343749996
1.784,0.021469709,0.057530836,0.07439318,0.013817969726562499,0.059629531
1.788,0.021464578124999998,0.057527316406249994,0.074391031,0.013813477,0.05962507
1.792,0.021466256,0.057527749999999996,0.074398344,0.013810124,0.059628422
1.796,0.021466859374999998,0.057527383,0.074400219,0.013806637695312499,0.059628422
1.8,0.021463473,0.057525605,0.07439868,0.013803586,0.059626812499999994
1.804,0.021458443,0.05752309,0.074393813,0.013801004882812499,0.059622289
1.808,0.021455291,0.057519738281249996,0.074391937,0.013797149,0.059617593749999996
1.812,0.021457438,0.057521246,0.074399883,0.013792488,0.059621582031249995
1.816,0.021457873,0.057522453,0.07440193,0.01378689,0.059623261718749994
1.82,0.021456767578124997,0.057520675781249996,0.074400391,0.013781626,0.05962259
1.824,0.021451838,0.057516652343749995,0.074396063,0.013775256,0.059619773437499995
1.828,0.021447445,0.057512965,0.07439375,0.013768248046874999,0.059616555
1.832,0.021449423828124998,0.057514004,0.074401695,0.013762012,0.059621348
1.836,0.021448586,0.057515313,0.074405078,0.013757150390624999,0.059625105468749995
1.84,0.021450162,0.057513301,0.074402297,0.013751686,0.059622757812499996
1.844,0.021446037,0.057509949218749995,0.074395563,0.013744846,0.059614039
1.848,0.021440539,0.057506125,0.074392508,0.013737906,0.059608004
1.852,0.021442551,0.057506328,0.074399016,0.013732407,0.059610789062499996
1.856,0.021444563,0.057506695312499995,0.074398742,0.013726875,0.059609749999999996
1.86,0.021445066406249998,0.057505355,0.074394484,0.013720169921874999,0.059607535156249995
1.864,0.021442418,0.057502137,0.074386539,0.013715140624999999,0.059603078
1.868,0.021437152343749998,0.057497742,0.074381984,0.013710179,0.059600125
1.872,0.021437656,0.057497710937499995,0.074387078,0.013708233,0.059605492
1.876,0.021439836,0.057496738281249994,0.074386813,0.013706691406249999,0.059607199
1.88,0.02143893,0.057494961,0.074384898,0.013705585,0.059604016
1.884,0.021434269531249998,0.057492277343749995,0.074378766,0.01370411,0.059597711
1.888,0.021428168,0.057489124999999995,0.074375844,0.013702869140624999,0.059591945
1.892,0.021429308593749998,0.057490332,0.074382984,0.013703673828124999,0.059594762
1.896,0.021430045,0.057492012,0.074384828,0.013704244140624999,0.05959493
1.9,0.021429475,0.057491941,0.074384164,0.0137024,0.059592414062499995
1.904,0.02142582,0.057490066,0.074379195,0.013700824,0.059587386718749996
1.908,0.021421193,0.057486378906249996,0.07437568,0.013699517,0.059582355
1.912,0.021422535,0.057487519531249996,0.074382219,0.013700354492187499,0.059585809
1.916,0.02142267,0.057489094,0.074383086,0.0137024,0.059587652
1.92,0.021419550781249998,0.057489664062499994,0.074382414,0.013703506835937499,0.059587754
1.924,0.021413917968749998,0.057488558593749996,0.074379063,0.013703439453124999,0.05958591
1.928,0.021410365,0.057485941,0.074376383,0.013702903,0.059581082031249996
1.932,0.021413684,0.05748698,0.074381547,0.013702903,0.059583328124999994
1.936,0.021413516,0.05748782,0.074383289,0.013702266,0.059586312499999995
1.94,0.021412275,0.057486746,0.074380641,0.013701528,0.059584637
1.944,0.021407246,0.057484734,0.074375273,0.013699818,0.059580277343749995
1.948,0.021400339843749998,0.057482121,0.074373164,0.013698678710937499,0.059576758
1.952,0.021403826171874998,0.057482188,0.074378461,0.013700321,0.059582055
1.956,0.021405637,0.057482723,0.074378531,0.013700254,0.059584234374999996
1.96,0.021401781249999998,0.057482188,0.074376016,0.013698678710937499,0.059582187499999995
1.964,0.021394607,0.057479437499999994,0.074372391,0.013697839843749999,0.059581851562499996
1.968,0.021390584,0.057474742,0.074367633,0.013696599609374999,0.059579441406249996
1.972,0.02139407,0.057474711,0.074371758,0.013697907,0.059583093749999996
1.976,0.021400105,0.057475547,0.074369141,0.01369841,0.059579507812499995
1.98,0.021392158203124997,0.057475078124999995,0.074369539,0.013697739,0.059581449
1.984,0.021385387,0.057474039062499996,0.074366859,0.013696935,0.059582055
1.988,0.0213819,0.057470484,0.074361461,0.013696768,0.059576085937499995
1.992,0.02138485,0.057469445,0.074363375,0.013699918945312499,0.059576457031249995
1.996,0.021385083984374997,0.057469613,0.074362164,0.013702333,0.05957632
2,0.021384414,0.057468305,0.074358313,0.013703372070312499,0.059574914
2.004,0.02138009,0.057464785156249996,0.074351906,0.013703104,0.059570723
2.008,0.021373316,0.057460996093749994,0.074348523,0.013701427734374999,0.059567539062499994
2.012,0.021375027,0.057461703,0.074353781,0.013703170898437499,0.059572566
2.016,0.021375964843749998,0.057462371,0.074356063,0.013706188476562499,0.05957441
2.02,0.021373953124999998,0.057463512,0.074354961,0.013707931640624999,0.059572836
2.024,0.0213705,0.057462671874999996,0.074350094,0.013707697265624999,0.059568105
2.028,0.021365773,0.057459121093749996,0.074346609,0.013705685546874999,0.059564855
2.032,0.021368689,0.057459355,0.07435043,0.013705518554687499,0.059567871093749995
2.036,0.021369695,0.057459723,0.074350133,0.013705820312499999,0.059569214843749996
2.04,0.021367684,0.057458449,0.074347414,0.013706893,0.059567504
2.044,0.021363392578124998,0.057455465,0.074342992,0.013706356,0.059564015624999994
2.048,0.021358630859374998,0.057451207,0.074338125,0.013703942382812499,0.059559925781249995
2.052,0.021359738,0.057451273,0.074343625,0.013704479,0.059562609
2.056,0.021359033,0.057452984374999995,0.074346109,0.013706993164062499,0.059565023437499996
2.06,0.021356787,0.057452348,0.074344563,0.013709440429687499,0.059565426
2.064,0.021354373,0.05744943,0.074338398,0.013710078124999999,0.059560999999999996
2.068,0.021350082,0.057445441,0.074333195,0.013706792,0.059554863281249995
2.072,0.021351355,0.057445238,0.074338461,0.013703306,0.05955748
2.076,0.021351188,0.057445508,0.07434007,0.013702869140624999,0.059561835937499995
2.08,0.021348506,0.057444301,0.074339734,0.013702667968749999,0.059564218749999995
2.084,0.021344986,0.057442086,0.074336852,0.013700857421874999,0.059560563
2.088,0.02134123,0.057437828,0.074333836,0.013698611328124999,0.059555234374999995
2.092,0.02134341,0.057437257812499996,0.074340203,0.013697102539062499,0.059557715
2.096,0.021345557,0.057437796874999995,0.07434275,0.013694957,0.059558148
2.1,0.021345085937499998,0.057436121,0.074341312,0.013693045898437499,0.059556171874999994
2.104,0.021341365,0.057433371,0.074336016,0.013691202,0.059552015624999996
2.108,0.021335229,0.057429617,0.074331859,0.013688821,0.059549097656249994
2.112,0.021337408203124998,0.057430285,0.074336953,0.013688922,0.059552617
2.116,0.021338447265624998,0.057431558593749994,0.074339266,0.013690531249999999,0.059553859
2.12,0.021337107421874998,0.057431695312499996,0.074338664,0.013691369,0.059553722656249995
2.124,0.021332648,0.057429414062499996,0.074333367,0.013691437,0.059550707
2.128,0.021327854,0.057425355468749995,0.074329547,0.013691302734374999,0.05954618
2.132,0.02133077,0.057424922,0.074334539,0.013691268554687499,0.059547722656249996
2.136,0.021331172,0.057425594,0.074336555,0.013691135,0.05954923
2.14,0.021328959,0.057426027,0.074335711,0.013690632,0.059548023
2.144,0.021325406249999998,0.057424387,0.07433082,0.013690263,0.059542961
2.148,0.021320143,0.057421031,0.074327766,0.013687883,0.059537699
2.152,0.021320746,0.057420933593749994,0.074334945,0.013687346,0.059542156
2.156,0.02132165,0.057422207,0.07433893,0.013688084,0.059545477
2.16,0.021320309,0.057421938,0.074338461,0.013687748,0.059544539
2.164,0.021316521,0.057419792968749994,0.074333102,0.013685770507812499,0.059540414
2.168,0.021312195,0.057415398437499994,0.074328305,0.013683087890624999,0.059535753906249995
2.172,0.021314173828124998,0.057415031,0.074333297,0.013682116,0.059538301
2.176,0.021313873046874997,0.057415164062499996,0.074335344,0.013682552,0.059539543
2.18,0.021312666,0.057414730468749994,0.074335516,0.013682418,0.059539507812499996
2.184,0.021309681640624998,0.057412449218749995,0.074332055,0.013680708007812499,0.059536055
2.188,0.021304953124999998,0.057408191406249996,0.074328438,0.013678394531249999,0.059531996
2.192,0.021307436,0.057407086,0.074333195,0.013677857,0.059535453
2.196,0.021308943,0.057406617187499995,0.074334805,0.013679634765624999,0.05953716
2.2,0.021307133,0.057405039062499996,0.074334273,0.013680372070312499,0.059538066
2.204,0.021303947265624998,0.057402793,0.074328742,0.013679634765624999,0.059535753906249995
2.208,0.021298482,0.057399070312499995,0.074323141,0.013679366,0.059528879
2.212,0.021299758,0.057398535,0.074328805,0.013682383789062499,0.059531562499999996
2.216,0.021301064453124997,0.057399003906249996,0.074330352,0.013686776367187499,0.059533371093749995
2.22,0.021300729,0.057396793,0.074327633,0.013689492,0.059532902
2.224,0.021296506,0.057393574,0.074322102,0.013690866,0.059529484
2.228,0.021289264,0.057389082,0.074319086,0.013692912,0.059527238
2.232,0.021289162,0.057388074218749995,0.074324414,0.013696666992187499,0.059532601562499995
2.236,0.021291777,0.057388445312499994,0.074325523,0.013699584,0.059533843749999996
2.24,0.021291174,0.05738727,0.074322367,0.013700221,0.059530723
2.244,0.021287955,0.057385191406249994,0.074318516,0.013698745,0.05952707
2.248,0.021283429687499997,0.057381504,0.074315695,0.013696230468749999,0.059523683593749994
2.252,0.021284234,0.057381804687499996,0.07432193,0.013696063,0.059527335937499995
2.256,0.021285273,0.057383816406249996,0.074324313,0.013697874023437499,0.059528711
2.26,0.021285273,0.057383648,0.074322305,0.013698745,0.059527406
2.264,0.021282959,0.057381371093749994,0.074316672,0.013698511,0.059523281
2.268,0.021277596,0.057377781249999996,0.074311906,0.013696733,0.059518484
2.272,0.021278667968749998,0.05737634,0.074315898,0.013696566,0.059521402343749995
2.276,0.021279238281249998,0.057375738,0.074316633,0.013697572,0.059524789
2.28,0.021279004,0.05737443,0.074314523,0.013699315,0.059523414062499995
2.284,0.021276422,0.05737141,0.074309023,0.01369965,0.059518519531249994
2.288,0.021271728515624998,0.057366953124999995,0.074304867,0.013698008,0.059511746
2.292,0.021274310546874998,0.057366816,0.074309695,0.013698342773437499,0.059513222656249996
2.296,0.021275248,0.057367992187499994,0.074312078,0.01369898,0.059514328124999995
2.3,0.021273068359374998,0.057368227,0.074311203,0.013699081,0.059513422
2.304,0.021270219,0.057366383,0.074306945,0.013698008,0.059508996093749995
2.308,0.02126442,0.057361988,0.074302148,0.013696297851562499,0.059503867
2.312,0.021265660156249998,0.057361188,0.074306344,0.013694789062499999,0.059507789
2.316,0.021267134765624997,0.057361488,0.074308352,0.013693079,0.059511043
2.32,0.021265895,0.057359477,0.074307117,0.013691604492187499,0.059509164062499995
2.324,0.021262307,0.057357094,0.074303289,0.013690833,0.05950625
2.328,0.021258686,0.057354480468749997,0.0742985,0.013689056,0.059501488
2.332,0.021263414,0.057354043,0.074300609,0.013689960937499999,0.059502226562499996
2.336,0.021267168,0.057353304687499995,0.074298633,0.013689960937499999,0.059501050781249995
2.34,0.021266429687499998,0.057351129,0.074296586,0.013688352,0.05950048
2.344,0.021263078124999998,0.057347773,0.074291594,0.013688084,0.059497999999999995
2.348,0.021257310546874998,0.057343652343749996,0.074287266,0.013687044,0.059494918
2.352,0.021259725,0.057342777,0.074292297,0.013687078,0.059498773
2.356,0.021261066406249998,0.057343617187499994,0.074294375,0.013689895,0.059500785
2.36,0.021259994,0.057343484374999996,0.074293234,0.013692308593749999,0.059500078124999994
2.364,0.021258385,0.057341305,0.074287164,0.013692677,0.059495086
2.368,0.02125359,0.057337785156249994,0.074281734,0.013690431,0.059490188
2.372,0.021254764,0.057338320312499996,0.074286023,0.013689895,0.059494078124999995
2.376,0.021256539,0.057339059,0.074287297,0.013692308593749999,0.059495957
2.38,0.021255298828124998,0.057338789,0.074285219,0.01369499,0.059493777
2.384,0.021251779,0.057336711,0.074281367,0.013697404,0.059491128906249996
2.388,0.021246884765624998,0.057333222656249995,0.07427593,0.013699348632812499,0.059486300781249994
2.392,0.021249063,0.057332418,0.074279055,0.013701930664062499,0.059488746093749996
2.396,0.021251746,0.057331883,0.074279422,0.013703607,0.059490691
2.4,0.021250035,0.057330105468749996,0.074277273,0.013705685546874999,0.059489855
2.404,0.021246314453124998,0.057327926,0.074273758,0.013706188476562499,0.059487844
2.408,0.021242225,0.057323535156249994,0.074268727,0.01370411,0.059484222656249995
2.412,0.021243867187499998,0.057323199218749996,0.074273117,0.01370297,0.059487844
2.416,0.021244771484374998,0.057325210937499996,0.074275766,0.013703339,0.059491999999999996
2.42,0.021243867187499998,0.057324773,0.074274695,0.01370354,0.059492199
2.424,0.021241219,0.057323332,0.074270164,0.013702099,0.059488008
2.428,0.02123649,0.057320011718749994,0.074263766,0.013700924804687499,0.059481203
2.432,0.021237631,0.057319609,0.074267484,0.0137024,0.059483316
2.436,0.021238568359374998,0.057321355468749995,0.074269125,0.013704412,0.059484722656249996
2.44,0.021237361,0.057321019531249996,0.074268086,0.013704043,0.05948459
2.444,0.02123468,0.057319945312499995,0.074263531,0.013702031,0.059479563
2.448,0.021228611328124997,0.05731666,0.074259938,0.01370059,0.059474027
2.452,0.021228712890624998,0.057316762,0.074265203,0.013699617187499999,0.059476242
2.456,0.021228947,0.057318168,0.074268422,0.013700489,0.059478085937499994
2.46,0.021226936,0.057318875,0.074268594,0.013703271,0.059476710937499996
2.464,0.021223045,0.057318004,0.074265875,0.013705552,0.059473624999999995
2.468,0.021217982,0.057314046874999997,0.074260781,0.013706021484374999,0.059468832031249995
2.472,0.021217982,0.057313879,0.07426443,0.013706356,0.059470238
2.476,0.021219592,0.057314582,0.074267148,0.013707898,0.05947175
2.48,0.021218721,0.057313508,0.074266141,0.013708167,0.059470039
2.484,0.021216474609374997,0.057312269531249994,0.074262586,0.013705987304687499,0.059465547
2.488,0.021211613,0.057307874999999994,0.07425743,0.013702635,0.059460652343749996
2.492,0.021212184,0.057305395,0.074261117,0.013700389,0.059463367
2.496,0.021212953,0.057306266,0.074263695,0.013699584,0.059466050781249995
2.5,0.021211445,0.057306301,0.074262586,0.01369965,0.059465109
2.504,0.021209400390624997,0.057304355,0.074258898,0.013698142,0.059461457
2.508,0.021203432,0.057299527,0.074253367,0.013696901,0.059457632812499994
2.512,0.021203767578124998,0.057297383,0.074257094,0.013697839843749999,0.059460082
2.516,0.021205008,0.057298054687499995,0.074260813,0.013698913,0.059462664
2.52,0.021203197265624998,0.057298019531249994,0.074260313,0.013699785,0.059462527343749995
2.524,0.021201455,0.057296878906249994,0.074256789,0.013699483,0.05945998
2.528,0.021198839843749998,0.057291883,0.074249914,0.013698175781249999,0.059452773437499995
2.532,0.021199107,0.057289504,0.074253906,0.013697839843749999,0.059456727
2.536,0.021201053,0.057289605,0.074257758,0.013697505,0.05946102
2.54,0.021200281249999998,0.057289133,0.07425682,0.013696331,0.05945723
2.544,0.021195955,0.057287594,0.074254305,0.013695896,0.059454953124999994
2.548,0.021192234,0.057283906249999995,0.074248844,0.013694823,0.059450293
2.552,0.021193006,0.057282531,0.074253,0.013694286132812499,0.059451261718749995
2.556,0.021196426,0.057283469,0.074254273,0.013695661,0.059450191
2.56,0.021196291,0.057282699,0.074252766,0.013696633,0.059447641
2.564,0.021192871,0.057281188,0.074249383,0.013697271,0.059445195
2.568,0.021188379,0.057276359374999995,0.074243984,0.013697806640624999,0.059440367187499996
2.572,0.021190156249999998,0.057274316,0.074247063,0.013698543945312499,0.059442378906249996
2.576,0.021191664,0.057275254,0.074249414,0.013700087,0.059444758
2.58,0.021192904,0.057274347656249995,0.074247164,0.013701327,0.059441773
2.584,0.021191229,0.057272539062499996,0.074243375,0.01370002,0.059437617
2.588,0.021185529,0.057269254,0.074238313,0.013697907,0.059433023437499996
2.592,0.0211864,0.057268852,0.074241805,0.013697505,0.059436008
2.596,0.021187809,0.057270023,0.074244352,0.013699584,0.059439394531249995
2.6,0.02118573,0.057269117187499996,0.074244516,0.013700522,0.059439898
2.604,0.021183550781249998,0.057267711,0.074241031,0.013698845703124999,0.059436543
2.608,0.021178186,0.057263117,0.074235766,0.013695963,0.059432320312499995
2.612,0.021178218749999998,0.057261844,0.074239625,0.013695729,0.059435941
2.616,0.021179092,0.057263922,0.074243141,0.013697404,0.059438421874999994
2.62,0.021178254,0.057264859,0.07424368,0.013697505,0.059437214843749996
2.624,0.021175,0.057264859,0.074240766,0.013696297851562499,0.059433996
2.628,0.021169805,0.057262210937499995,0.074237172,0.013693817,0.059429972656249996
2.632,0.021169938,0.057262582031249995,0.074242141,0.013693717,0.05943316
2.636,0.021171949,0.057264691,0.074245523,0.013695393,0.059436140624999995
2.64,0.021171144531249998,0.057264961,0.074247633,0.013696365234374999,0.059437082
2.644,0.021168932,0.057264593749999995,0.074246492,0.013696666992187499,0.059434668
2.648,0.021165109374999998,0.057262113,0.074242641,0.013694957,0.059428902
2.652,0.021167559,0.057261003906249996,0.074245625,0.013693884,0.059430008
2.656,0.021169904,0.057262277343749994,0.074248672,0.013693717,0.059431516
2.66,0.021169066,0.057262445,0.074247906,0.013693381,0.059430140624999996
2.664,0.021166754,0.057260266,0.074243609,0.013692610351562499,0.059424609
2.668,0.02116226,0.057255507812499995,0.074238984,0.013690699,0.059416563
2.672,0.021161689,0.057254332,0.074244688,0.013690463867187499,0.059418539
2.676,0.021161992,0.057255773,0.074249547,0.013691504,0.059420621
2.68,0.021160316406249997,0.057255539,0.074250719,0.013691369,0.059419176
2.684,0.021156729,0.057255136718749995,0.074249047,0.013690028320312499,0.059416328124999994
2.688,0.021150994,0.057251887,0.074246359,0.013688754,0.059411934
2.692,0.021150994,0.057251016,0.074251992,0.013689425,0.059415488
2.696,0.021152604,0.05725202,0.074257289,0.013690196,0.059419480468749994
2.7,0.021153141,0.057252691,0.07425843,0.01368976,0.059418773437499996
2.704,0.021152168,0.05725202,0.07425632,0.013688754,0.059415187499999994
2.708,0.021147072,0.057248668,0.074252398,0.013685938,0.059410124999999994
2.712,0.021147005859374998,0.057248433593749995,0.074257664,0.013684563,0.059413445
2.716,0.021149252,0.057251046874999996,0.074262219,0.013684765,0.059416261718749995
2.72,0.02114885,0.057251382812499994,0.074262016,0.013683591,0.059413914062499996
2.724,0.021146133,0.057249941,0.074259773,0.013682149414062499,0.059409992187499996
2.728,0.021141037,0.057245382812499995,0.074255883,0.013680607,0.059403723
2.732,0.021140668,0.057244008,0.07426175,0.013680171,0.059404258
2.736,0.021140835937499998,0.057245145,0.074267281,0.013680205078124999,0.059407441
2.74,0.021140265624999998,0.057244879,0.074269227,0.013678394531249999,0.05940818
2.744,0.021137686,0.057243469,0.074268289,0.013676818359374999,0.059407980468749996
2.748,0.021132890624999998,0.057239379,0.074265102,0.013675309570312499,0.059403352
2.752,0.021133594,0.057238441,0.074270602,0.013675510742187499,0.059404695
2.756,0.02113574,0.057239648,0.074274797,0.013675276,0.059406804687499995
2.76,0.021135639,0.057239613,0.074275094,0.013672862,0.059405297
2.764,0.021132455078124997,0.057238441,0.074273656,0.013671320312499999,0.059404191406249994
2.768,0.021127191,0.057236296874999995,0.074270836,0.013669308593749999,0.059401238
2.772,0.02112776,0.057236128906249996,0.07427493,0.013668403,0.059402445312499996
2.776,0.021130041,0.057237301,0.074277711,0.013668503906249999,0.059402648
2.78,0.021127861,0.057237434,0.074277477,0.0136678,0.059402984374999995
2.784,0.021123201171874998,0.057236027343749996,0.074277406,0.01366676,0.059403184
2.788,0.021117568,0.057232171874999994,0.074275359,0.013663944335937499,0.059400367
2.792,0.021118472656249998,0.057231066406249996,0.074281469,0.013661093749999999,0.059403555
2.796,0.021121054687499998,0.057232976562499996,0.074286258,0.013658344726562499,0.059406035156249995
2.8,0.02112082,0.057233008,0.074287234,0.013653214843749999,0.059405699
2.804,0.021118674,0.057232676,0.074285156,0.013648722656249999,0.059404191406249994
2.808,0.021114148,0.057229925781249996,0.074280289,0.013644397460937499,0.059398355
2.812,0.021112875,0.057229121093749995,0.074285422,0.013642318359374999,0.059400637
2.816,0.021114215,0.057231199,0.074290117,0.013640809570312499,0.059403555
2.82,0.021113645,0.057231800781249995,0.074289711,0.013637054687499999,0.059402648
2.824,0.021110023,0.057231937499999996,0.074288508,0.013633500976562499,0.059402145
2.828,0.021104458984374998,0.057229957,0.074284586,0.013629847,0.059399062499999995
2.832,0.021103688,0.057229054687499996,0.074288977,0.013627768,0.059401375
2.836,0.021104291,0.057229222656249995,0.074293734,0.013626929687499999,0.059405597656249996
2.84,0.021103888671874998,0.057227878906249995,0.074294242,0.013625889648437499,0.059405363
2.844,0.021102414062499998,0.057225934,0.074291758,0.01362475,0.059402145
2.848,0.021097685546874998,0.057223254,0.074287867,0.013621229,0.059397886718749994
2.852,0.021097451,0.057223285,0.074291258,0.013619519531249999,0.059400199
2.856,0.021099631,0.057224629,0.074294273,0.013619688,0.059402848
2.86,0.021098559,0.057224293,0.074293438,0.013619151367187499,0.059402445312499996
2.864,0.021095373046874998,0.057223219,0.074290555,0.013618749,0.059400234
2.868,0.021090242,0.057219195,0.074284688,0.013617507812499999,0.059395238
2.872,0.021088398,0.057217285,0.074288406,0.013618279296874999,0.059396547
2.876,0.021088734374999998,0.057219597656249996,0.074293102,0.013619721,0.059398492
2.88,0.021086455,0.057221777343749995,0.074293062,0.013619016601562499,0.059397921874999995
2.884,0.021083705,0.057221945312499994,0.074290852,0.013617374,0.059397550781249996
2.888,0.021078576,0.057219297,0.074286156,0.013617039,0.05939343
2.892,0.021076865,0.057219027,0.074290586,0.013618346679687499,0.05939698
2.896,0.02107948,0.057220906249999995,0.07429407,0.013619185,0.059401309
2.9,0.021081459,0.057221105,0.074291188,0.01361962,0.059398355
2.904,0.021081123,0.057219094,0.074285156,0.013621364,0.059391617187499995
2.908,0.021075658,0.057214668,0.074277844,0.013621397460937499,0.059384512
2.912,0.02107482,0.057212624999999996,0.074281063,0.013621565,0.059387023
2.916,0.021075424,0.05721316,0.07428425,0.013622135,0.059390242
2.92,0.021072406249999998,0.057212523437499996,0.074283648,0.013623073242187499,0.059389671874999994
2.924,0.021069121,0.057211855468749996,0.074280859,0.013624917968749999,0.059386621093749994
2.928,0.021063555,0.057208499999999995,0.074275695,0.013625420898437499,0.059381793
2.932,0.021062684,0.057207695312499994,0.074278883,0.013626125,0.059383336
2.936,0.021065230468749998,0.057209371093749996,0.074281367,0.013627465820312499,0.059386925781249995
2.94,0.021064025390624998,0.057209406,0.074279289,0.013628672851562499,0.059387628906249997
2.944,0.021060738281249998,0.057208937499999994,0.074275867,0.013629410156249999,0.059387059
2.948,0.021055207,0.057206859374999995,0.07427107,0.013628002,0.059385582031249995
2.952,0.021055844,0.057207293,0.074273148,0.013627063,0.059387328
2.956,0.021060001953124997,0.057209676,0.074273352,0.013627332,0.059386957
2.96,0.021060135,0.057208066,0.074269797,0.013626829,0.059385148
2.964,0.02105648,0.057206254,0.074265141,0.013625722656249999,0.059384476562499997
2.968,0.021052087890624998,0.057202098,0.074256289,0.013622638,0.059378339843749996
2.972,0.021051955,0.057199347656249996,0.074256625,0.013620459,0.059378339843749996
2.976,0.021053129,0.057199883,0.074259367,0.013621465,0.059381125
2.98,0.02105125,0.057199148,0.074257391,0.013623274414062499,0.059380754
2.984,0.021048869,0.057198746093749996,0.0742535,0.013625253,0.059379281
2.988,0.021044109374999998,0.057196832,0.074247703,0.013624549,0.059373949
2.992,0.021042902,0.057196297,0.074249383,0.013625387,0.059375426
2.996,0.021044545,0.057198141,0.074252195,0.013628672851562499,0.059380117
3,0.021045248,0.057198676,0.07424975,0.013631892,0.059378339843749996
3.004,0.02104592,0.057197371,0.074243211,0.01363407,0.059374382812499994
3.008,0.021041293,0.057193515624999997,0.074235367,0.013634673828124999,0.059368352
3.012,0.021042197,0.057191570312499995,0.074236367,0.013635445,0.059368352
3.016,0.021045182,0.057192238281249995,0.074239086,0.013636384,0.059369391
3.02,0.021043707031249997,0.057191503906249996,0.074236875,0.013637155,0.059368214843749996
3.024,0.021041695,0.057189691,0.07423325,0.013635747070312499,0.059365499999999995
3.028,0.021035559,0.057186039,0.074228086,0.013632562,0.059362179687499995
3.032,0.021034084,0.057184562499999994,0.074230367,0.013631220703124999,0.059364797
3.036,0.02103499,0.057187043,0.074234289,0.013630986328124999,0.059367746
3.04,0.021033582031249998,0.057188316406249995,0.074234328,0.01363035,0.059366977
3.044,0.021031939,0.057188617,0.07423218,0.013631421874999999,0.059365433593749996
3.048,0.021027982421874997,0.057185566,0.074226813,0.013631892,0.059360101562499996
3.052,0.02102768,0.05718473,0.074229664,0.013633333,0.059361207031249995
3.056,0.021028451,0.057186641,0.074233422,0.013635714,0.059364828
3.06,0.021027378906249998,0.057186977,0.07423268,0.013635881,0.059364527343749994
3.064,0.021026541,0.057186473,0.074229266,0.013634842,0.059361676
3.068,0.02102198,0.057183289062499996,0.074223766,0.013632729492187499,0.059355676
3.072,0.021022014,0.057182016,0.074224805,0.013632261,0.059353632812499994
3.076,0.021022919921874998,0.05718225,0.074227555,0.013634540039062499,0.059356781
3.08,0.021022248,0.057181242187499995,0.074227086,0.013636519,0.059357723
3.084,0.021020473,0.057180605,0.074225672,0.013637223,0.059354871
3.088,0.021016348,0.057177218749999995,0.074219711,0.013638563476562499,0.059349707
3.092,0.021018896,0.057175375,0.07422118,0.013640441406249999,0.059348266
3.096,0.021022014,0.057176246,0.074224867,0.013641614257812499,0.059350078
3.1,0.021020605,0.057175844,0.074224031,0.013642587,0.059350949
3.104,0.021018191406249997,0.057175074,0.07422118,0.013644162,0.059348836
3.108,0.021014471,0.057171586,0.074214578,0.013643860351562499,0.059343406249999994
3.112,0.021016047,0.057168906,0.074214508,0.013644096,0.059342465
3.116,0.021018629,0.057169476562499995,0.074216258,0.013644498,0.059344848
3.12,0.021017656,0.057169374999999995,0.074213305,0.013643928,0.059345484
3.124,0.021015979,0.057168167968749996,0.074208406,0.013642922,0.059344848
3.128,0.021011218749999998,0.057164512,0.074201336,0.01364185,0.059338711
3.132,0.021008871,0.057162835937499996,0.07420375,0.013642151367187499,0.059340152343749994
3.136,0.021013230468749998,0.05716391,0.074205594,0.013644631835937499,0.059342164062499994
3.14,0.021013029,0.057164144531249995,0.074204281,0.013647883789062499,0.059340285
3.144,0.021011721,0.057163773437499996,0.074202438,0.013649359,0.059337707
3.148,0.021006793,0.057161160156249995,0.074195938,0.013648756,0.059332273
3.152,0.021005754,0.057160086,0.074196805,0.013650968749999999,0.059332406
3.156,0.02100867,0.057160992187499995,0.074198953,0.013654321,0.059333281249999995
3.16,0.021007363,0.057161027,0.074196203,0.013656199,0.059330262
3.164,0.021002166,0.05716032,0.074194359,0.013657607421874999,0.059330867
3.168,0.020996836,0.057157504,0.074187586,0.013658613281249999,0.059326874999999994
3.172,0.020999148,0.057156734,0.074187188,0.013659417968749999,0.059326910156249996
3.176,0.021002334,0.057158512,0.074189133,0.013660087890624999,0.059328117187499994
3.18,0.021001328,0.057158309,0.07418675,0.013659217,0.05932557
3.184,0.021000824,0.057156668,0.07418182,0.013659619140624999,0.059322113
3.188,0.020997271,0.057152609374999996,0.074173406,0.013658312,0.059314636718749994
3.192,0.020993951,0.057151066,0.07417743,0.013657607421874999,0.059316348
3.196,0.020996701,0.05715432,0.074182391,0.013658244,0.059321547
3.2,0.020996668,0.057155996093749994,0.074180914,0.013655897,0.059321949218749996
3.204,0.020994923828124998,0.057155226562499994,0.074177766,0.01365231,0.059322215
3.208,0.020990063,0.057152039,0.074171594,0.013649292,0.059319031249999994
3.212,0.020989894531249997,0.057151102,0.074174445,0.013648521484374999,0.059318761718749995
3.216,0.02099241,0.057152945312499995,0.074178266,0.01364899,0.05932034
3.22,0.020990801,0.057152980468749996,0.074176594,0.013649527343749999,0.059317855
3.224,0.020986408203124998,0.057151871,0.074174711,0.013648823,0.059315512
3.228,0.020981312499999998,0.057149055,0.074168648,0.013645202148437499,0.059308636718749995
3.232,0.020982016,0.057147582,0.074169719,0.013642855,0.059307063
3.236,0.020985703124999998,0.057148723,0.074173508,0.013642385742187499,0.059309945312499994
3.24,0.020985904,0.057148085937499996,0.074171961,0.013641312499999999,0.05930773
3.244,0.020983189,0.057146640624999995,0.074168844,0.01364024,0.059305585937499995
3.248,0.020977992,0.057143391,0.074162508,0.013640005,0.059300723
3.252,0.020977121,0.05714252,0.074164187,0.013641111328124999,0.059300691406249995
3.256,0.020981412,0.057143188,0.074166867,0.013643425,0.059304012
3.26,0.020980742,0.05714225,0.074166469,0.013644096,0.059304246
3.264,0.020978998,0.057141313,0.074164719,0.013645067382812499,0.05930257
3.268,0.020974136718749998,0.057137891,0.07415825,0.013644128906249999,0.059298445312499996
3.272,0.020972963,0.057136515624999995,0.07416093,0.013642252,0.059298008
3.276,0.020974908,0.057139031,0.074167875,0.013642654296874999,0.059299718749999994
3.28,0.020974941,0.057139969,0.074168914,0.013643123046874999,0.059297203124999996
3.284,0.020973467,0.057140508,0.074167508,0.013642922,0.059294453
3.288,0.020968068359374998,0.057138527343749995,0.074162477,0.013640206,0.059290027343749996
3.292,0.020967666,0.05713702,0.074163383,0.013640005,0.059289895
3.296,0.020970717,0.057137957,0.074168406,0.013641312499999999,0.059293047
3.3,0.020971085937499998,0.057138628906249996,0.074167938,0.013642252,0.05929184
3.304,0.020969912,0.057138898437499995,0.074165391,0.013641983,0.059288656249999995
3.308,0.020965285,0.057135043,0.074159523,0.013640206,0.059281648437499994
3.312,0.020963676,0.057132227,0.074162344,0.013639871093749999,0.059283457
3.316,0.020966426,0.057134335937499996,0.074166836,0.013642151367187499,0.059287113
3.32,0.020968035,0.057134437499999996,0.074164891,0.013644196289062499,0.059284632812499995
3.324,0.020966525390624997,0.057132593749999995,0.074162375,0.013645504,0.059282988
3.328,0.020961697,0.057129476562499996,0.074156609,0.013644229,0.059278261718749996
3.332,0.020959988281249998,0.057129039,0.074159125,0.013643357421874999,0.059277859
3.336,0.020963005859374998,0.05713102,0.074163109,0.013644766,0.059279836
3.34,0.020963039062499998,0.057130683593749995,0.074161203,0.013645604,0.059278797
3.344,0.020960457031249997,0.057129008,0.074158516,0.013646274,0.059276516
3.348,0.020954691,0.057125957,0.074152984,0.013647716796874999,0.059271152343749994
3.352,0.020953451,0.057125152,0.074154898,0.013649862,0.059270082
3.356,0.020957676,0.057126660156249995,0.074159828,0.013652208984374999,0.059272929687499996
3.36,0.020958346,0.057126527,0.074158688,0.013652007812499999,0.059272762
3.364,0.02095734,0.057126558593749995,0.074156242,0.013650264648437499,0.059270281249999994
3.368,0.020952042968749997,0.057124480468749995,0.074151109,0.013649729,0.059264516
3.372,0.020949996,0.057122906249999994,0.074153156,0.013651840820312499,0.059265218749999994
3.376,0.020954289,0.057124378906249995,0.074156914,0.013654354,0.059267128906249994
3.38,0.020954824218749998,0.057124414,0.074156406,0.013655662,0.059266059
3.384,0.020953451,0.057123777343749994,0.074155234,0.013656098632812499,0.059264516
3.388,0.020947416015624998,0.057121297,0.074150773,0.013656501,0.059261598
3.392,0.020948521,0.057118578,0.07415118,0.013656768554687499,0.059260324
3.396,0.020951605,0.057119016,0.074156109,0.013659350585937499,0.059262367
3.4,0.020948723,0.057120019531249996,0.074157313,0.013659887,0.059263711
3.404,0.020948185546874998,0.057120055,0.074155063,0.013660691,0.05926116
3.408,0.020946645,0.05711573,0.074147859,0.013659954,0.059251773437499995
3.412,0.020943962890624997,0.057113113281249996,0.074149766,0.013658177,0.059252109
3.416,0.020945672,0.057114824,0.074155969,0.013657205,0.059259754
3.42,0.020945839843749998,0.057115460937499994,0.074156406,0.013657473,0.059259754
3.424,0.020942822265624998,0.057114391,0.07415443,0.013659519,0.059257777
3.428,0.020936955,0.057111640624999994,0.074149938,0.013659283203124999,0.059252781
3.432,0.020935714843749998,0.057110668,0.074152281,0.013659149,0.059252109
3.436,0.020938697,0.057111977,0.074156039,0.01366153,0.059255093749999994
3.44,0.020938967,0.057112308593749994,0.074155469,0.013662368164062499,0.059255363281249994
3.444,0.020938229,0.057111941,0.074152789,0.013662166992187499,0.059255628906249996
3.448,0.020932529,0.057108453,0.074147219,0.013661999,0.059252144531249995
3.452,0.020930049,0.057108555,0.074150305,0.013663575,0.059253586
3.456,0.020933736328124997,0.05711107,0.074154828,0.013666291,0.059256734374999995
3.46,0.020933601562499998,0.057111809,0.074154258,0.0136678,0.059255125
3.464,0.020931355,0.05711184,0.074153727,0.013668638,0.059255125
3.468,0.020926158,0.057109292968749996,0.074149102,0.013667866210937499,0.059253281
3.472,0.020924583984374998,0.057107617187499994,0.074151039,0.013667129,0.05925516
3.476,0.020928673828124997,0.057108488281249994,0.074155539,0.013667732421874999,0.059257305
3.48,0.020928371,0.057108117187499995,0.074155133,0.013667498046874999,0.059257105468749995
3.484,0.020927734,0.057107179687499995,0.074152117,0.013668302734374999,0.059254757812499996
3.488,0.020923175781249997,0.057104063,0.074145609,0.0136678,0.059248254
3.492,0.020922102,0.057102183593749994,0.074146953,0.013668403,0.059248621093749995
3.496,0.020924951171874998,0.057102922,0.07415168,0.013671387,0.059252309
3.5,0.020924482421874998,0.057101414062499994,0.074151281,0.013674806640624999,0.059251641
3.504,0.02092351,0.057100609,0.074149969,0.013678259765624999,0.059250266
3.508,0.020919017578124997,0.057098227,0.074145211,0.013680976,0.059244832
3.512,0.020915933593749998,0.057096117187499996,0.074147727,0.013683323,0.059243895
3.516,0.020917475,0.057098766,0.074154734,0.013685401367187499,0.059249563
3.52,0.020917676,0.057099805,0.074155305,0.013686072,0.05925134
3.524,0.020916637,0.057099906,0.074152719,0.013686676,0.059247749999999995
3.528,0.020911977,0.057096453124999995,0.074146148,0.013685871,0.059240105
3.532,0.020910535,0.057094238281249994,0.07414843,0.013685971679687499,0.059240172
3.536,0.020913652,0.05709568,0.074154258,0.013688318,0.059245605
3.54,0.020913619,0.057097023,0.074154898,0.01368909,0.05924641
3.544,0.020911641,0.057097156249999996,0.074153656,0.013688989,0.059246375
3.548,0.020906310546874998,0.057094238281249994,0.0741495,0.013689357,0.059241078
3.552,0.020903494,0.057091890624999996,0.074152383,0.013689626,0.059241851562499996
3.556,0.020907617187499998,0.057093332,0.074157445,0.013689593,0.059243895
3.56,0.020906175781249998,0.057092832,0.074156813,0.013690296874999999,0.059244097656249994
3.564,0.020904936,0.057091085937499994,0.074154461,0.013691705,0.059242988
3.568,0.020902053,0.057086191,0.074148961,0.013689257,0.059236016
3.572,0.020899135,0.057083512,0.074150742,0.013686910156249999,0.059235043
3.576,0.020900376953124997,0.057084917968749996,0.074157445,0.013686005,0.059240242
3.58,0.020898498,0.057084246,0.074157008,0.013686038,0.059238328124999996
3.584,0.020896117,0.057082605,0.074156641,0.013686742,0.059236953
3.588,0.02089052,0.057079418,0.074151945,0.013685804,0.059231891
3.592,0.020888406249999998,0.057077777,0.074153961,0.013685335,0.059230281249999996
3.596,0.020891625,0.057080089843749994,0.074160094,0.013686575,0.059233769531249994
3.6,0.020892128906249998,0.057080391,0.07415993,0.013687614,0.059233098
3.604,0.020890486,0.057079085937499996,0.074159023,0.013687782226562499,0.059231891
3.608,0.020884551,0.05707543,0.0741555,0.013686676,0.059229242187499996
3.612,0.020882271,0.057073484,0.074157648,0.013687346,0.059228406
3.616,0.020885490234374998,0.057075699,0.074164016,0.013689458007812499,0.059231758
3.62,0.020885623,0.057075297,0.074165195,0.013689425,0.059230449218749995
3.624,0.020882472656249998,0.057073652343749996,0.074165055,0.013687916,0.059227836
3.628,0.020877041,0.057071039062499995,0.074160563,0.013686407226562499,0.05922009
3.632,0.020874795,0.057067617187499996,0.074164289,0.013684597,0.059218215
3.636,0.020877176,0.057068656249999995,0.074171695,0.013683691,0.059222305
3.64,0.020876939,0.057068793,0.074173945,0.013683222656249999,0.059222269531249996
3.644,0.020874895,0.057066879,0.074175352,0.013682886718749999,0.059220425781249995
3.648,0.020869732,0.057062422,0.074173273,0.013680874999999999,0.059214727
3.652,0.020867117,0.057060207,0.07417793,0.013677522,0.059213988
3.656,0.020868693,0.057062789,0.07418725,0.013676617,0.059219922
3.66,0.020868291,0.057063796874999996,0.074190273,0.013675812499999999,0.059219891
3.664,0.020866949,0.057063492187499995,0.074191344,0.01367293,0.059217742
3.668,0.020861148437499998,0.057060878906249994,0.074187859,0.013670247070312499,0.059213082031249996
3.672,0.020858836,0.057059839843749995,0.074191477,0.013667766,0.059212715
3.676,0.020861854,0.057062254,0.074199695,0.013666726562499999,0.059217242
3.68,0.020862389,0.057062824218749995,0.074200734,0.013665754,0.059217105468749996
3.684,0.020860412,0.057061551,0.074201773,0.013664647,0.059215699218749994
3.688,0.020855549,0.057058597656249994,0.074198648,0.013661194,0.059210132812499996
3.692,0.020852197,0.057056285,0.074202578,0.013659082031249999,0.059210570312499995
3.696,0.020853537,0.057057457031249995,0.074210656,0.013659417968749999,0.059215664
3.7,0.02085327,0.057057324,0.074212867,0.013658613281249999,0.059215195312499996
3.704,0.020851258,0.057056184,0.074214742,0.013657573,0.059213183593749996
3.708,0.020846766,0.057052027,0.074210891,0.013655662,0.059207184
3.712,0.020843847656249997,0.057050352,0.074214914,0.013654354,0.059206613
3.716,0.020845994140624997,0.057053468749999996,0.074224633,0.013655059,0.059212042968749996
3.72,0.02084576,0.057054945,0.074228594,0.013654992,0.059213586
3.724,0.020843547,0.057054609374999996,0.074228797,0.01365469,0.059211777343749994
3.728,0.020837578,0.057052797,0.074224734,0.013653785156249999,0.059206714843749994
3.732,0.020834326,0.057052867187499995,0.074226953,0.013653047851562499,0.059205371
3.736,0.020835668,0.057055917968749995,0.074235867,0.013653886,0.059210434
3.74,0.02083275,0.057057828124999994,0.074239922,0.013656199,0.059212109374999995
3.744,0.020831611,0.057057961,0.074241906,0.013656232,0.059210434
3.748,0.020826615,0.057054710937499996,0.074239789,0.013654053,0.059206714843749994
3.752,0.020824705,0.057052898,0.074242977,0.013652779296874999,0.059206378906249996
3.756,0.020827957,0.057055445312499994,0.074249547,0.013651605,0.059209863
3.76,0.02082799,0.057055480468749996,0.074251156,0.013648588,0.059211539
3.764,0.020826447,0.057053671874999996,0.074250516,0.013645637695312499,0.059208992
3.768,0.020819844,0.057050687499999996,0.074244953,0.013641815429687499,0.059204602
3.772,0.020817664062499998,0.057048507812499996,0.074246531,0.01363796,0.059204164062499995
3.776,0.02082048,0.05704998,0.07425243,0.013637624999999999,0.059207449
3.78,0.020819775,0.057050785,0.074254141,0.013638630859374999,0.05920859
3.784,0.020817664062499998,0.057050316406249996,0.074255414,0.013639167,0.059208055
3.788,0.020812332,0.057047871,0.07425132,0.013638161,0.059203328124999996
3.792,0.020809482421874997,0.057045253906249996,0.074252734,0.013636887,0.059201414
3.796,0.020812566,0.057046664062499995,0.074258898,0.013638396,0.059204938
3.8,0.020813004,0.057046394531249996,0.074259438,0.013640072265624999,0.059204332031249994
3.804,0.020811125,0.057046124999999996,0.074259273,0.013641648437499999,0.059203058593749996
3.808,0.020806164,0.057044585937499996,0.074254211,0.013641916,0.059198062499999995
3.812,0.020803582,0.057043145,0.074254813,0.013641246,0.059196656
3.816,0.020804486,0.05704502,0.074262188,0.013640575195312499,0.059202289062499996
3.82,0.020805560546874997,0.057046496093749996,0.074263062,0.013641045,0.059203996093749996
3.824,0.020805861328124998,0.057045992,0.074260977,0.013641682,0.059202453
3.828,0.020801503906249998,0.057042304687499996,0.07425468,0.013641447265624999,0.059195179687499995
3.832,0.020798117,0.057040125,0.074254875,0.013641312499999999,0.059190789
3.836,0.020799961,0.057042574218749996,0.074260445,0.013641447265624999,0.05919548
3.84,0.020801066,0.057042808593749994,0.074260172,0.013641045,0.059196488281249994
3.844,0.020799625,0.057040965,0.07425907,0.01364091,0.059196824
3.848,0.020793992,0.057036906,0.074254539,0.01364148,0.059191960937499996
3.852,0.020790506,0.05703409,0.074254773,0.013643324218749999,0.059192128906249995
3.856,0.020793625,0.057035766,0.07426068,0.013647012695312499,0.059196086
3.86,0.020794361,0.057035664,0.074259133,0.013650332,0.059194543
3.864,0.020792619,0.057035128906249996,0.074256953,0.013653249,0.059191996
3.868,0.020788896,0.057032816,0.074251156,0.013653214843749999,0.059186832
3.872,0.020786383,0.057029395,0.074251227,0.013653383,0.059186261718749994
3.876,0.020787488,0.057030035,0.07425625,0.013655259765624999,0.05919216
3.88,0.020786080078124998,0.057029867,0.074256586,0.013657205,0.059194508
3.884,0.020784236,0.057029093749999996,0.074255547,0.013658177,0.059195113281249996
3.888,0.02077951,0.057026176,0.074249953,0.013658445,0.059191523
3.892,0.020777531249999998,0.057022793,0.074249617,0.01365925,0.059191121
3.896,0.02078132,0.057024,0.074254773,0.013660188,0.059195449218749994
3.9,0.020782225,0.057024367187499994,0.074252734,0.013660323,0.059194308593749995
3.904,0.020781152343749998,0.057023395,0.074249516,0.013660658203124999,0.059192496
3.908,0.020775552734374998,0.057019941406249997,0.074241633,0.013660658203124999,0.059187602
3.912,0.020772400390624998,0.057017258,0.074241234,0.013661262,0.059186629
3.916,0.020774883,0.057018867187499996,0.074246164,0.013663643,0.059190621
3.92,0.020773809,0.057019473,0.074244852,0.013663643,0.059190316
3.924,0.020771596,0.057018699218749996,0.074241633,0.013663608398437499,0.059188742
3.928,0.020767506,0.057015816406249996,0.074233453,0.013663105468749999,0.059182809
3.932,0.020765998046874998,0.057012230468749994,0.074229969,0.013663374,0.059179488
3.936,0.020769551,0.057012633,0.074234023,0.013665386,0.059182707
3.94,0.020769349609374998,0.057012699,0.074232914,0.013666492187499999,0.059182976562499996
3.944,0.020767172,0.057012097656249996,0.074231914,0.013666860351562499,0.0591815
3.948,0.020762275390624998,0.057009246,0.074227219,0.013666156249999999,0.059174293
3.952,0.02075842,0.057007133,0.074228156,0.013666190429687499,0.059172516
3.956,0.020761236,0.057008609,0.074235094,0.013668369,0.059178785
3.96,0.020762008,0.057008441,0.074235133,0.013670749999999999,0.059179523
3.964,0.020760699218749998,0.057006699,0.074232281,0.013672191406249999,0.059178249999999995
3.968,0.020754027,0.057003781249999996,0.074225641,0.013671856,0.059174929687499996
3.972,0.020752117,0.057001266,0.074224969,0.013671018554687499,0.059172348
3.976,0.020755168,0.057002508,0.074228359,0.013672326171874999,0.059175063
3.98,0.020755402,0.057003011718749996,0.074226109,0.013673499023437499,0.059172648437499996
3.984,0.020752252,0.057002609,0.074224234,0.013674504882812499,0.059171742187499994
3.988,0.020747992187499998,0.057000027343749995,0.074218164,0.013675343,0.059167050781249994
3.992,0.020746550781249998,0.056997074,0.074217094,0.013675007812499999,0.059166613281249995
3.996,0.020750373,0.056998551,0.074222055,0.013674773,0.059169699218749996
4,0.020751346,0.056998953124999995,0.074221383,0.013675443,0.059168792968749995
4.004,0.020750541,0.056998718749999996,0.07422118,0.013675544,0.059168426
4.008,0.020745746,0.056996809,0.074215047,0.013675443,0.059164667968749994
4.012,0.020741154296874998,0.056994395,0.074215117,0.013676583984374999,0.059164637
4.016,0.020743971,0.05699741,0.074221281,0.013679031,0.059168828124999996
4.02,0.020743499999999998,0.056999457,0.074220109,0.013681076171874999,0.059168289
4.024,0.020744103515624997,0.056999289,0.074216492,0.013682383789062499,0.059166043
4.028,0.020739443,0.056995734374999996,0.074209148,0.013682921,0.059160578124999995
4.032,0.020734447,0.056993051,0.074209281,0.013685435,0.059160914
4.036,0.020736861328124998,0.056994125,0.074215414,0.013688754,0.059168258
4.04,0.020737533,0.05699473,0.074214742,0.013690397,0.059169027
4.044,0.020736861328124998,0.056994191,0.074211156,0.013692007,0.059166613281249995
4.048,0.020732805,0.056991878906249994,0.074204953,0.013692711,0.059161953
4.052,0.020730559,0.056988695,0.07420318,0.013692442,0.059159707031249995
4.056,0.020733576,0.056988726562499994,0.074206633,0.013692811523437499,0.059161418
4.06,0.020732939453124998,0.056988695,0.074205422,0.013691034179687499,0.059161184
4.064,0.020730390624999998,0.05698782,0.074204516,0.013689793945312499,0.059162559
4.068,0.020727205078124998,0.056985004,0.074200531,0.013688386,0.05915766
4.072,0.020724256,0.056983094,0.074200328,0.013686742,0.059154812499999994
4.076,0.020727474609374998,0.056984906249999995,0.074206297,0.013687413,0.059157227
4.08,0.020727877,0.056984804687499994,0.074206297,0.013687179,0.059153738
4.084,0.020724557,0.056983699218749996,0.074205758,0.013686943359374999,0.059151461
4.088,0.020719695312499998,0.056980343749999995,0.074200898,0.013686173,0.059147
4.092,0.02071574,0.056977598,0.074201266,0.013684965820312499,0.059146195
4.096,0.020717182,0.056980211,0.074208711,0.013686173,0.059151191
4.1,0.020717482,0.056980949,0.074208977,0.013688251,0.059150688
4.104,0.02071574,0.056980313,0.074208477,0.013688854,0.059149918
4.108,0.020710879,0.056977292968749996,0.074204656,0.013689022460937499,0.059146027
4.112,0.02070776,0.056974445,0.074206266,0.013688955078124999,0.059144316406249994
4.116,0.020709771,0.056975820312499995,0.074213977,0.013689123,0.059147839843749994
4.12,0.020709537,0.056976055,0.074214711,0.013688084,0.059148742
4.124,0.020707693359374998,0.056974445,0.074212563,0.013687916,0.059146429687499995
4.128,0.020704240234374997,0.056971257812499995,0.074207305,0.013686776367187499,0.059137879
4.132,0.020701391,0.056967335937499995,0.074205859,0.013684161132812499,0.059132918
4.136,0.020703402,0.05696707,0.074210625,0.013683658203124999,0.059135871
4.14,0.020700887,0.056967707031249995,0.074212563,0.013683424,0.059137546874999995
4.144,0.020700183593749998,0.056966499999999996,0.074212266,0.013682351,0.059138887
4.148,0.020696729,0.056961871,0.074206297,0.013678964,0.059136773
4.152,0.020692974609374998,0.056959191,0.074204953,0.013675544,0.059134762
4.156,0.020695959,0.056959828,0.074209047,0.013674271,0.05913798
4.16,0.020696092,0.056959425781249996,0.074207977,0.013671354,0.059137313
4.164,0.020692707,0.056957984,0.0742075,0.013669777,0.059137879
4.168,0.020689186,0.056954965,0.074201836,0.013670348,0.059134191406249995
4.172,0.020686705,0.056951109374999996,0.074199594,0.013672493164062499,0.059132684
4.176,0.020689287,0.056951145,0.074203883,0.013675176,0.059134594
4.18,0.02068875,0.056951746,0.074203047,0.013675879882812499,0.059133957031249997
4.184,0.020687341796874998,0.056951145,0.074200563,0.013676349,0.059133218749999994
4.188,0.020683352,0.056948527,0.074193422,0.013675611,0.059128492
4.192,0.020680334,0.056945477,0.074191406,0.013674069335937499,0.059124937499999995
4.196,0.020681708984374998,0.056946082,0.074197211,0.01367417,0.059128559
4.2,0.020681207,0.056946113281249995,0.074197813,0.013673936,0.059130472656249995
4.204,0.020679396484374998,0.056944269531249994,0.074195969,0.013675309570312499,0.059131207
4.208,0.020675775390624998,0.056941921874999996,0.074190273,0.013675376953124999,0.059128391
4.212,0.020671383,0.056939441,0.074189469,0.013675108,0.059127621
4.216,0.020674199218749998,0.056940852,0.074193789,0.013677388671874999,0.059132918
4.22,0.020674064,0.056941453,0.074193016,0.013678662,0.059133621
4.224,0.020672422,0.056941387,0.074191344,0.013677958,0.059132113281249996
4.228,0.02066823,0.056939375,0.074185914,0.013676315429687499,0.059127921874999996
4.232,0.020663435546874998,0.056936996,0.074185039,0.013676215,0.059125910156249996
4.236,0.020665683593749998,0.056938637,0.074190938,0.013676885742187499,0.059129801
4.24,0.020666354,0.056938805,0.074191211,0.013676416,0.059130640624999994
4.244,0.020664275,0.056937496,0.074190508,0.013676013671874999,0.059130269531249995
4.248,0.020660117,0.056934344,0.074184406,0.013674975,0.059125879
4.252,0.020658307,0.056930656249999996,0.074181891,0.013673667,0.059121183593749994
4.256,0.020661459,0.056931527343749996,0.074186445,0.0136737,0.059124203
4.26,0.020661559,0.056932266,0.074186648,0.013674706,0.059124535
4.264,0.020659648,0.056932098,0.074184773,0.013676785,0.059125609
4.268,0.020656697,0.056929316,0.074179672,0.013678964,0.059121352
4.272,0.02065368,0.056926199218749994,0.074177867,0.013680037,0.059118
4.276,0.020655055,0.056927438,0.074184133,0.013681848,0.059123262
4.28,0.020657201,0.056928344,0.074184133,0.013682987,0.059124703
4.284,0.020657301,0.056927070312499994,0.074181484,0.013684597,0.059123898437499996
4.288,0.020653545,0.056923887,0.074175281,0.01368567,0.059118738
4.292,0.020649523437499998,0.056920027,0.074172805,0.013685268,0.059115215
4.296,0.020652104,0.056920195,0.074178633,0.013685703124999999,0.059118335937499995
4.3,0.020653880859374998,0.056920332,0.074179742,0.013686575,0.059119508
4.304,0.020654148,0.056919894531249994,0.074177398,0.013686474609374999,0.059116824218749996
4.308,0.020649253906249998,0.056916945312499995,0.074171063,0.013685703124999999,0.059111563
4.312,0.020643890624999998,0.056912820312499994,0.074168883,0.013685167,0.059108812499999996
4.316,0.020645666015624998,0.056912921874999994,0.07417357,0.013686676,0.059113977
4.32,0.02064741,0.056913758,0.074173977,0.013686843,0.059116156249999996
4.324,0.020646337890624998,0.056912719,0.074170555,0.013687313,0.059115652
4.328,0.020642314453124998,0.056909535156249996,0.074164523,0.01368738,0.059113707
4.332,0.020638828124999998,0.056906953,0.074161805,0.013687078,0.059109516
4.336,0.020642212890624997,0.056908094,0.074165898,0.013687078,0.059109816406249995
4.34,0.020643152,0.056908125,0.074165695,0.013686776367187499,0.059110355
4.344,0.020642648437499998,0.056906652343749996,0.074161672,0.013688150390624999,0.059109617
4.348,0.020636982,0.056904172,0.074155836,0.013689357,0.059106968749999995
4.352,0.020634166,0.056901152,0.074152922,0.013688318,0.059105124999999994
4.356,0.020636714843749997,0.056902125,0.074157648,0.013688117,0.059108914
4.36,0.020636883,0.056903031,0.074158383,0.013687883,0.059111863281249996
4.364,0.020635574218749998,0.05690266,0.074157344,0.013687413,0.059113773437499996
4.368,0.020632021,0.056900648,0.074152047,0.013686005,0.059108945312499994
4.372,0.020628499999999998,0.05689723,0.074148195,0.013682383789062499,0.059106031249999996
4.376,0.020631752,0.056897566406249996,0.074151781,0.01368168,0.059110789062499995
4.38,0.020631451,0.056896996,0.074152789,0.013682584960937499,0.059111563
4.384,0.020627965,0.056896227,0.074152148,0.013682886718749999,0.05911059
4.388,0.020623305,0.056894078,0.074145648,0.013682719726562499,0.059106765624999995
4.392,0.020619684,0.056890691,0.074142391,0.013682149414062499,0.059103011718749994
4.396,0.020622264,0.056891464843749996,0.074147086,0.013684563,0.059105863
4.4,0.020622465,0.056892367,0.074147555,0.013688017,0.059107438
4.404,0.020622465,0.056892839843749994,0.07414625,0.01368986,0.059107539
4.408,0.020619549,0.056891699218749994,0.07414075,0.013689593,0.059103449
4.412,0.020616666,0.05688868,0.074136594,0.013689392,0.059101133
4.416,0.020620287,0.056888816,0.07414082,0.013690833,0.059105324
4.42,0.020622533203124998,0.056889586,0.074140414,0.013693045898437499,0.059104621
4.424,0.020620924,0.056889687499999994,0.074138469,0.013694051757812499,0.059102843749999995
4.428,0.020616195,0.056888512,0.074134617,0.013694487,0.059097445
4.432,0.020612072,0.056886668,0.074133172,0.013693951,0.059094027343749994
4.436,0.020614486,0.056888582031249996,0.074137836,0.013693415,0.059097179687499994
4.44,0.020614721,0.056889016,0.074136891,0.013693548828124999,0.059098387
4.444,0.020613682,0.056888344,0.074134781,0.013693448,0.059096707031249994
4.448,0.020610631,0.056886332,0.07412818,0.013692576,0.059091109
4.452,0.020605367187499998,0.056883148437499996,0.074125727,0.013690263,0.059090437499999995
4.456,0.020607445,0.056884289062499996,0.074130422,0.013689960937499999,0.059094059
4.46,0.020608217,0.056885058593749996,0.074130828,0.013690564,0.059093559
4.464,0.020607949218749998,0.056883281,0.074128813,0.013690966796874999,0.059092617187499995
4.468,0.020603857,0.056881438,0.074121672,0.013690732421874999,0.059089066406249995
4.472,0.020599365,0.056879965,0.07411825,0.013689928,0.059085141
4.476,0.020601512,0.056881472656249994,0.074122711,0.013691738,0.059088359374999996
4.48,0.020604127,0.056882074218749995,0.074121469,0.013693516,0.059087891
4.484,0.020604361328124998,0.056881304687499995,0.074118688,0.013694051757812499,0.059085609
4.488,0.020599465,0.056878855468749996,0.07411393,0.013694789062499999,0.059082461
4.492,0.020595275,0.056874801,0.074111109,0.013694789062499999,0.059080414062499996
4.496,0.020597053,0.056874566,0.074116211,0.013695226,0.059084874999999995
4.5,0.020595879,0.056875539062499994,0.07411943,0.013696265,0.059087054687499994
4.504,0.020594168,0.05687584,0.074119156,0.013697303710937499,0.059086785156249995
4.508,0.020591352,0.056874128906249995,0.074113188,0.013696733,0.059082425781249996
4.512,0.02058743,0.056870777,0.074109836,0.013695996,0.059080547
4.516,0.020589072265624998,0.056871379,0.074114063,0.013697169921874999,0.059085109
4.52,0.020590816,0.056871852,0.07411282,0.01369898,0.059086012
4.524,0.020589844,0.056870508,0.074109867,0.013700087,0.059084805
4.528,0.020584914062499998,0.056867727,0.074104539,0.013700354492187499,0.059082796874999996
4.532,0.020580053,0.056865445,0.074101422,0.013699684570312499,0.059079609374999995
4.536,0.020581025,0.056867457,0.074106016,0.013701696289062499,0.059082996
4.54,0.020582098,0.056868664,0.074105609,0.013704211,0.059083566406249996
4.544,0.020581863281249998,0.056867960937499996,0.074103766,0.013704880859374999,0.059083129
4.548,0.020578176,0.056865613,0.074099344,0.013703842,0.059080312499999996
4.552,0.020574723,0.056861691,0.074095484,0.013700857421874999,0.059075754
4.556,0.020575863,0.056861121093749994,0.074100078,0.013699382812499999,0.059079878906249994
4.56,0.020576098,0.056860351562499994,0.074100883,0.013698443,0.059081621093749995
4.564,0.02057375,0.056859578,0.074099914,0.013697806640624999,0.059081019531249994
4.568,0.020569994,0.056857632812499996,0.07409425,0.013697472,0.059076793
4.572,0.020565871,0.056854816406249994,0.074091797,0.013695829,0.059073375
4.576,0.020568051,0.056856863281249996,0.074098469,0.013696768,0.059078805
4.58,0.020569928,0.056858438,0.074100117,0.013697472,0.059081117
4.584,0.020567447,0.056858339843749994,0.074098742,0.013698242,0.059081554687499996
4.588,0.02056376,0.056856594,0.074093781,0.013698645,0.059079207
4.592,0.020561479,0.056853042968749996,0.074089688,0.013698142,0.059077632812499996
4.596,0.020562184,0.056854148437499995,0.074095953,0.013699014,0.05908323
4.6,0.020564261718749997,0.056856093749999996,0.074096055,0.013699517,0.059081824218749995
4.604,0.020563256,0.056855957031249994,0.074093945,0.013699751,0.059077465
4.608,0.020560842,0.056854249999999995,0.074090258,0.013698879882812499,0.059071797
4.612,0.02055692,0.056850863,0.074086336,0.013697907,0.059072570312499996
4.616,0.020558227,0.056850558593749996,0.074090289,0.013698443,0.059079578
4.62,0.020558160156249998,0.056851031249999996,0.074091633,0.013699617187499999,0.059081387
4.624,0.020555209,0.056849621,0.074090422,0.013699517,0.059084671874999994
4.628,0.020552695312499997,0.056845496093749996,0.074084453,0.013697907,0.059081992187499995
4.632,0.020548438,0.056840469,0.074079727,0.013697035156249999,0.059079742
4.636,0.020549542968749997,0.056840234,0.07408543,0.01369794,0.059085679687499996
4.64,0.020548672,0.056841172,0.074087539,0.013700455,0.059089398437499996
4.644,0.020545688,0.05684107,0.074087813,0.01370478,0.059091109
4.648,0.020540357,0.056839832031249996,0.074084055,0.01370773,0.05908893
4.652,0.020536031,0.056836715,0.074080266,0.013708904,0.059086718749999996
4.656,0.020538311,0.056837921874999996,0.074085297,0.013711989,0.059090874999999994
4.66,0.02053982,0.056839863,0.074085359,0.013714939,0.059091715
4.664,0.020539484,0.056839628906249995,0.074083047,0.013716616,0.059089469
4.668,0.020535764,0.056836547,0.074078156,0.013718359,0.059085512
4.672,0.020531874999999998,0.056832289,0.074075102,0.013719465820312499,0.059081824218749995
4.676,0.020532109,0.056832691,0.074080938,0.013721644531249999,0.059086281
4.68,0.020533182,0.056834601562499996,0.074082211,0.013723421874999999,0.059087859374999996
4.684,0.020533014,0.056833898437499995,0.074080063,0.013723757,0.05908625
4.688,0.020528254,0.056830445,0.074074094,0.013723824,0.059081422
4.692,0.020522186,0.056825918,0.074068898,0.013724126,0.059075484374999994
4.696,0.020522186,0.056825749999999994,0.074073828,0.013726607421874999,0.059078203
4.7,0.020523627,0.056826722656249995,0.074074867,0.013729256,0.059079374999999996
4.704,0.020520979,0.056826722656249995,0.074075438,0.013730227539062499,0.059080215
4.708,0.020516518,0.056825816,0.074072719,0.013731435,0.05907827
4.712,0.020512328,0.056824105,0.074070172,0.013731837,0.059075016
4.716,0.020514809,0.056825515624999996,0.07407557,0.013731334,0.059077800781249995
4.72,0.020516048828124998,0.056826754,0.074076711,0.013730529296874999,0.059079141
4.724,0.020515848,0.056826117,0.074075938,0.013729523,0.059078035
4.728,0.020513199,0.05682327,0.074071719,0.013729423,0.059073273
4.732,0.020509277,0.056819277343749995,0.074068867,0.013729557617187499,0.05906868
4.736,0.02051102,0.056819781,0.07407443,0.013731066406249999,0.059071898
4.74,0.020512295,0.056820519531249995,0.074075672,0.01373291,0.059072570312499996
4.744,0.020509544921874998,0.056819848,0.074075609,0.013734788,0.05907173
4.748,0.020505353515624998,0.056818070312499996,0.074072117,0.013735123046874999,0.059068343749999995
4.752,0.020500727,0.05681368,0.074067992,0.013734318359374999,0.059063918
4.756,0.02050227,0.056814352,0.074074266,0.013734017,0.059067004
4.76,0.020503678,0.056816629,0.074077648,0.013732843,0.059066871
4.764,0.020500357,0.056816058593749996,0.074078188,0.013732541015624999,0.05906707
4.768,0.020494725,0.05681398,0.074076844,0.013733011,0.059064691406249994
4.772,0.020489932,0.056811133,0.074076547,0.01373234,0.059062679687499994
4.776,0.020492210937499998,0.056811398,0.074083719,0.013733346,0.059067507812499996
4.78,0.020493721,0.056812304687499995,0.074086398,0.013735055664062499,0.059070055
4.784,0.020493787109374998,0.056811902,0.074085898,0.013733413,0.059069214843749995
4.788,0.020491004,0.056809218749999994,0.074081406,0.013730060546874999,0.059065898
4.792,0.02048641,0.056804191406249996,0.074077883,0.013728183,0.059061972656249996
4.796,0.020486813,0.05680352,0.074083383,0.013727747070312499,0.059064824
4.8,0.020488422,0.056804125,0.0740855,0.013726708,0.059067406249999996
4.804,0.020486512,0.056804191406249996,0.074085898,0.013725836,0.059066902
4.808,0.020482723,0.056803688,0.074082711,0.013724293945312499,0.059061605
4.812,0.020478264,0.056800269531249996,0.074079898,0.013721946,0.059056844
4.816,0.020478766,0.056799766,0.074086805,0.013721980468749999,0.059060465
4.82,0.020478632812499998,0.056800906,0.074090594,0.013722617,0.059064289
4.824,0.020476654,0.056801441,0.07409257,0.013721377,0.059064992
4.828,0.020473468749999998,0.056800738,0.07408925,0.01371923,0.059062679687499994
4.832,0.020470082,0.056796042968749995,0.074084992,0.013717655273437499,0.059058921874999996
4.836,0.020471156,0.056795406,0.074090391,0.013716415039062499,0.059062343749999996
4.84,0.02047149,0.056796648,0.074091734,0.013716683,0.059064188
4.844,0.020470955,0.056796246093749995,0.074089719,0.013716616,0.059062746
4.848,0.020465623,0.056794469,0.07408543,0.013715812,0.059058921874999996
4.852,0.020459689,0.056790812499999996,0.074083219,0.013715073242187499,0.05905634
4.856,0.0204615,0.056790781,0.074087539,0.01371561,0.059060332031249996
4.86,0.020462975,0.056791519531249994,0.074087875,0.01371618,0.059060296874999994
4.864,0.020461902343749998,0.056790980468749995,0.074084555,0.013715174,0.05905966
4.868,0.020458918,0.056789339843749995,0.074077852,0.013714604492187499,0.059057313
4.872,0.020454123046874998,0.056785348,0.074071414,0.013713765624999999,0.059052386718749995
4.876,0.020454828124999998,0.056784777343749995,0.074075773,0.013714437,0.059056176
4.88,0.020456738281249998,0.056785917968749995,0.074076547,0.013715140624999999,0.059058656249999994
4.884,0.020456134765624998,0.056785617,0.074074867,0.013715375,0.059058688
4.888,0.020453018,0.056783672,0.074068797,0.013713699,0.05905473
4.892,0.020447082031249997,0.056779582,0.074064039,0.013710078124999999,0.059050609
4.896,0.020446076171874997,0.056778910156249994,0.074069469,0.013710547,0.059053625
4.9,0.020445742187499998,0.05677975,0.074071648,0.013712559,0.059055469
4.904,0.020443730468749997,0.056780019531249996,0.07407175,0.0137138,0.05905698
4.908,0.020442121093749998,0.056777535156249996,0.07406632,0.013714235,0.059055301
4.912,0.020436723,0.056773547,0.074061758,0.013714235,0.059050609
4.916,0.020438064453124998,0.056773109,0.074065414,0.013714504,0.059051984
4.92,0.020438902,0.056774555,0.074067727,0.013714335937499999,0.059053523
4.924,0.02043793,0.056774453,0.07406682,0.013714303,0.059053054687499995
4.928,0.020435549,0.056772910156249995,0.074063438,0.013713900390624999,0.059049703
4.932,0.020431593749999998,0.056769324,0.074057734,0.013712626,0.059044371
4.936,0.020432264,0.056768688,0.074062266,0.013713028320312499,0.059047324218749996
4.94,0.020432162,0.056770059,0.074065617,0.013713866,0.059051012
4.944,0.020430721,0.056769859374999995,0.074065477,0.013713833007812499,0.059051984
4.948,0.020428609,0.05676748,0.074060453,0.013714268554687499,0.059048964843749996
4.952,0.020424016,0.056763992,0.074055352,0.013713129,0.059045445
4.956,0.020425592,0.056763925781249995,0.074059813,0.013712592773437499,0.059048629
4.96,0.020425625,0.056764628906249996,0.074059914,0.013713397460937499,0.059050473
4.964,0.020423613,0.056764796874999995,0.074059609,0.013713765624999999,0.059049703
4.968,0.020419959,0.056763824218749995,0.074055828,0.01371447,0.059045078
4.972,0.020414494,0.05676141,0.074052305,0.013714067382812499,0.05904082
4.976,0.020418082,0.056760371,0.074054922,0.013715174,0.059045109374999995
4.98,0.02041892,0.056760305,0.074055492,0.013716314,0.059046316
4.984,0.020416473,0.056759266,0.074055055,0.013717454,0.059047355
4.988,0.020414227,0.056757824218749996,0.074050563,0.013718191,0.059046617
4.992,0.020409732,0.056755007812499994,0.074045898,0.013718426,0.059043734
4.996,0.020412146484374998,0.056753832,0.074049391,0.013718862,0.059045007812499994
5,0.020413287109374997,0.056753832,0.074050898,0.013719532,0.059047054687499996
5.004,0.020412416,0.05675209,0.074049719,0.013718023437499999,0.05904709
5.008,0.020408525390624998,0.056749406249999995,0.074045328,0.013715979,0.059046082031249995
5.012,0.020403229,0.056745852,0.074040969,0.013713431,0.059042426
5.016,0.020404234,0.056745953,0.074046836,0.013710748046874999,0.059045812499999996
5.02,0.020406447,0.056746926,0.074047844,0.013708401,0.05904568
5.024,0.020404805,0.056745785,0.074046102,0.013707396,0.059044742
5.028,0.02040182,0.056743574218749995,0.074042242,0.01370763,0.059042594
5.032,0.020397394531249998,0.056740555,0.074038555,0.013705384,0.059038641
5.036,0.020398133,0.056741562499999995,0.07404332,0.013703339,0.059042461
5.04,0.020400479,0.056743574218749995,0.074043656,0.013702803,0.059043434
5.044,0.020400076,0.056743004,0.074040305,0.013701763,0.05903941
5.048,0.020396388671874998,0.056739918,0.074035508,0.013700555664062499,0.059034785
5.052,0.02039126,0.056735023,0.074029937,0.013699248,0.059029652343749996
5.056,0.020391929687499998,0.056734688,0.074033563,0.013699986,0.059032438
5.06,0.020392734,0.056736296874999995,0.074037617,0.013701193359374999,0.059036629
5.064,0.020392902343749998,0.056736601562499996,0.074036516,0.013700656,0.059036426
5.068,0.020390019531249998,0.056735324218749994,0.074032688,0.013699986,0.05903341
5.072,0.020386096,0.056731773,0.074028328,0.013698712,0.059029184
5.076,0.020387672,0.056731035,0.074033063,0.013697035156249999,0.059031164062499995
5.08,0.020388576,0.056731234374999995,0.074034602,0.013696800781249999,0.059034113281249995
5.084,0.020388041,0.056729523,0.074032117,0.013695627929687499,0.059033711
5.088,0.020385257812499998,0.056726641,0.074026922,0.013693649,0.059029887
5.092,0.020379727,0.056722316,0.074021727,0.013691469726562499,0.059025059
5.096,0.020380598,0.056722922,0.074027727,0.013691202,0.059028179687499994
5.1,0.020382408,0.056724629,0.074029977,0.013692107421874999,0.05903143
5.104,0.020380463,0.056724461,0.074029539,0.013692107421874999,0.059032301
5.108,0.020377111,0.056723121093749995,0.074024813,0.013691738,0.059028648
5.112,0.020371545,0.056719800781249996,0.074019445,0.013691101562499999,0.059024824
5.116,0.020372583984374998,0.056718761718749997,0.074022602,0.013691972656249999,0.059027574
5.12,0.02037577,0.056718761718749997,0.074023602,0.013692912,0.059028949218749995
5.124,0.020374764,0.056717289062499995,0.074019953,0.013691738,0.059028113281249996
5.128,0.020372148437499998,0.056715645,0.074014586,0.013690766,0.059025933593749996
5.132,0.020366584,0.056713433593749994,0.074010094,0.013689659179687499,0.059022578124999996
5.136,0.020366515624999998,0.056713097656249996,0.074014516,0.013691537109374999,0.059025531
5.14,0.020365779,0.056714070312499996,0.074018273,0.013694756,0.059029921874999995
5.144,0.020364404,0.056714906249999995,0.074018375,0.013696834,0.05902925
5.148,0.020360045,0.056714473,0.074016359,0.013697505,0.059026031
5.152,0.020354883,0.056711723,0.074013008,0.013695963,0.059022715
5.156,0.020357195,0.056711656,0.074016359,0.013695393,0.059025262
5.16,0.020359375,0.056712594,0.074018375,0.013696398,0.059027140624999995
5.164,0.020357832,0.056712058593749996,0.074017703,0.013697303710937499,0.059028246
5.168,0.020354715,0.05671048,0.074014148,0.013697806640624999,0.059027140624999995
5.172,0.020350055,0.056707598,0.074009727,0.013697169921874999,0.059023418
5.176,0.020350055,0.056708035156249996,0.074015555,0.013697572,0.059026434
5.18,0.020351295,0.056709375,0.074018406,0.013699348632812499,0.059030223
5.184,0.020350490234374997,0.056709008,0.074017602,0.01370002,0.059029621
5.188,0.020346533,0.056706324,0.074013078,0.013699785,0.059027508
5.192,0.020341303,0.056702101562499996,0.074008453,0.013699348632812499,0.059021773437499994
5.196,0.020341806640624998,0.056701128906249995,0.074011906,0.013700489,0.059022813
5.2,0.020344656,0.056701195312499994,0.07401257,0.013700254,0.059023652
5.204,0.020343348,0.056699718749999996,0.074010328,0.013698645,0.059021605468749995
5.208,0.020341738,0.056697172,0.074004828,0.013696901,0.059017953124999994
5.212,0.020336709,0.056692879,0.073998859,0.01369499,0.059013629
5.216,0.020336811,0.056692109,0.074002953,0.013694152,0.059015503906249996
5.22,0.020337615,0.056693551,0.074005094,0.013693951,0.059017551
5.224,0.020335501953124998,0.056693785156249996,0.074003992,0.013693717,0.059016914062499995
5.228,0.020331781,0.056692847656249996,0.074001172,0.013693314,0.059016445
5.232,0.020327221,0.056690266,0.073996883,0.0136909,0.059013629
5.236,0.020330273437499997,0.056690632812499996,0.073999938,0.013689123,0.059015238
5.24,0.020332787,0.056692477,0.074000906,0.013688084,0.059016847656249996
5.244,0.020331949,0.056691605468749996,0.073999898,0.013685335,0.059018222656249994
5.248,0.020329635,0.056689258,0.073994602,0.01368349,0.059015371
5.252,0.020323701,0.056685102,0.07398857,0.013682216796874999,0.059009906
5.256,0.020323332,0.056683961,0.073992219,0.013682954101562499,0.059012422
5.26,0.020323232,0.056685805,0.073995641,0.013684765,0.059015102
5.264,0.020323935546874998,0.056685371,0.073992359,0.013686005,0.059013426
5.268,0.020321756,0.056683324,0.073987023,0.013685066,0.059009738281249995
5.272,0.020316525,0.056680543,0.07398357,0.013682016,0.059005613281249994
5.276,0.020319779,0.05667873,0.073985547,0.013680909179687499,0.059006887
5.28,0.020321221,0.056678195,0.073986594,0.013682484,0.059009973
5.284,0.020321521,0.056677457031249996,0.073985516,0.013683289,0.059010542968749996
5.288,0.020318773,0.056676214843749996,0.07398243,0.013684832,0.059007895
5.292,0.020312972656249997,0.056672762,0.073977703,0.013685770507812499,0.059005145
5.296,0.020314714843749998,0.056672094,0.073980992,0.013687514,0.059008765624999994
5.3,0.020317365,0.056673499999999995,0.073983406,0.013689693,0.059012855
5.304,0.020316057,0.056674039,0.073981195,0.013689793945312499,0.059012992187499995
5.308,0.020313978515624997,0.056672762,0.073977305,0.01368919,0.059011246
5.312,0.020308480468749997,0.056669578124999995,0.07397157,0.013688754,0.059006754
5.316,0.020307842,0.056668640624999995,0.073974422,0.013691202,0.059009535156249994
5.32,0.020310222656249998,0.056669511718749996,0.073975625,0.013693917968749999,0.05901259
5.324,0.020308445,0.056669476562499994,0.073973719,0.013696733,0.059012957
5.328,0.020305529,0.056668973,0.073969656,0.013698342773437499,0.059011582031249996
5.332,0.020301941,0.056665656249999995,0.073963789,0.013698175781249999,0.059006887
5.336,0.020302746,0.056665117187499996,0.073966508,0.013699918945312499,0.059009203
5.34,0.020304523,0.056666727,0.073969187,0.01370183,0.059012422
5.344,0.020303417968749998,0.056666762,0.073967883,0.013703372070312499,0.059011984
5.348,0.020301338,0.056667464843749994,0.073963992,0.013704043,0.059008765624999994
5.352,0.020296578,0.056664582,0.07395782,0.013703205078124999,0.059003871
5.356,0.020298488,0.056663644531249995,0.07395943,0.013703874999999999,0.059005445312499995
5.36,0.02029993,0.056664949218749996,0.073961445,0.013705451171874999,0.059008496093749994
5.364,0.020299461,0.056664984,0.073959328,0.013706859,0.059009570312499995
5.368,0.020296041,0.056664383,0.073955742,0.01370773,0.059008566
5.372,0.020289402,0.056661664,0.073950781,0.0137081,0.059004609374999996
5.376,0.020290811,0.056661867,0.073953461,0.013708736328124999,0.059006117
5.38,0.020293795,0.056663476562499995,0.073953664,0.013708871,0.059007726562499994
5.384,0.020293795,0.056662234374999995,0.07395132,0.013708469,0.059005113
5.388,0.020291480468749998,0.056660559,0.073947695,0.013708569335937499,0.059003301
5.392,0.020285313,0.056656906,0.073943203,0.013707798,0.059000316406249996
5.396,0.020285682,0.056655863281249996,0.073947094,0.013708837,0.059002699218749996
5.4,0.020286652,0.056656199218749995,0.073949773,0.013712089843749999,0.059005445312499995
5.404,0.020284943359374998,0.056655664,0.073948602,0.013714202,0.05900518
5.408,0.020283736,0.05665459,0.073944852,0.013715979,0.059004207
5.412,0.020279646,0.056651473,0.073937609,0.013715812,0.058997332031249995
5.416,0.020279377,0.056649996093749995,0.073940055,0.01371561,0.058996527
5.42,0.02028082,0.056651371,0.073942836,0.013716516,0.058998004
5.424,0.020279746,0.056651441406249996,0.073942367,0.013717253,0.058997566
5.428,0.020278037109374997,0.056650300781249996,0.073938742,0.013717587890624999,0.058996496093749996
5.432,0.020273945,0.056645941,0.073932508,0.013716817,0.058990425781249994
5.436,0.020274248,0.05664423,0.07393543,0.013717219,0.058991867
5.44,0.020276158,0.056645136718749996,0.073938445,0.013717621,0.058995253906249996
5.444,0.020275824,0.056644668,0.073936633,0.013717454,0.058994550781249995
5.448,0.020273678,0.056643960937499994,0.073932875,0.013717354,0.058991531
5.452,0.020268012,0.05664175,0.073929492,0.013716046,0.058985801
5.456,0.020268582,0.056640309,0.073933781,0.013715208,0.058988012
5.46,0.0202716,0.056640746,0.073937234,0.013714437,0.058991699
5.464,0.02027009,0.056640813,0.073936805,0.013712759765624999,0.058991601562499996
5.468,0.020267642578124998,0.056640343749999995,0.073935766,0.01371048,0.05899093
5.472,0.02026352,0.056637492,0.073931203,0.013706859,0.058986703
5.476,0.020264189453124998,0.056635882812499996,0.073934484,0.013704546,0.058988078124999996
5.48,0.020265865,0.056637324,0.073939078,0.013703339,0.058992137
5.484,0.020265630859374998,0.056637792968749996,0.073939617,0.013701562,0.058991934
5.488,0.020263183593749998,0.056637727,0.073939617,0.01370126,0.058990960937499996
5.492,0.020257685546874998,0.056635984,0.073937938,0.013700791,0.058987711
5.496,0.020258088,0.056634777,0.073940961,0.013698913,0.058988281249999996
5.5,0.020259865,0.056635277,0.07394357,0.013698813,0.058990125
5.504,0.020261373,0.056634172,0.073942938,0.013698845703124999,0.058987105468749995
5.508,0.020260033,0.056630988281249996,0.073939984,0.013697739,0.058984828
5.512,0.02025517,0.056626328,0.073934961,0.013695896,0.058980871
5.516,0.020254467,0.056625722656249995,0.073938609,0.013696297851562499,0.05898077
5.52,0.020255941,0.056627234374999995,0.073942,0.013698376953124999,0.058982277
5.524,0.020255338,0.056625925781249996,0.073941797,0.013698879882812499,0.058982414062499995
5.528,0.020254566,0.056624418,0.073940086,0.013698879882812499,0.058980805
5.532,0.020248533,0.056621063,0.073935461,0.013698678710937499,0.058977953124999996
5.536,0.020249438,0.056620058593749995,0.073939312,0.013698478,0.058979093749999996
5.54,0.020253158,0.05662123,0.073943203,0.013697605468749999,0.058982347656249996
5.544,0.02025165,0.056621063,0.073943508,0.013697035156249999,0.058983586
5.548,0.020249539,0.056620125,0.073940891,0.013696599609374999,0.058981874999999996
5.552,0.020243906,0.056616203,0.073934789,0.013695996,0.058977383
5.556,0.020245213,0.056613855468749995,0.073936633,0.013695829,0.058978523
5.56,0.020247693,0.056615164,0.073939922,0.013695996,0.058979832
5.564,0.020247762,0.056614660156249996,0.073938781,0.013694622070312499,0.058977617
5.568,0.020245615,0.056613117,0.073936133,0.013692777343749999,0.058975203
5.572,0.020239715,0.056610066,0.073931672,0.013691067,0.058970813
5.576,0.020238977,0.056609328,0.073934391,0.013691671,0.058972656
5.58,0.020241055,0.056611039,0.073938711,0.013692241,0.058977183593749996
5.584,0.020241559,0.056611375,0.073936867,0.013691638,0.058976078
5.588,0.020239682,0.056610168,0.073932875,0.013691939,0.058973496093749994
5.592,0.020234417968749998,0.056606445312499996,0.073926172,0.013690699,0.058967226562499996
5.596,0.020234853515624998,0.056605371093749995,0.073928891,0.01368976,0.058968332031249994
5.6,0.02023824,0.056606949,0.073931805,0.013690799804687499,0.05897182
5.604,0.020239883,0.056606277,0.073929125,0.013690732421874999,0.058969004
5.608,0.020237199218749998,0.056604938,0.073924164,0.013690934,0.058966921874999995
5.612,0.020231098,0.056601347656249995,0.073918461,0.013690229492187499,0.058962664062499996
5.616,0.020229857,0.05659907,0.073921711,0.013690363,0.058964879
5.62,0.020232104,0.056599605468749994,0.073924836,0.013689960937499999,0.05896793
5.624,0.020231602,0.056598769531249996,0.07392225,0.013689123,0.058967359
5.628,0.020228584,0.056597996,0.073918633,0.013689357,0.058966621
5.632,0.020223320312499998,0.056594578124999996,0.073913,0.013689123,0.058962094
5.636,0.020223050781249998,0.056593503906249995,0.073915781,0.013689593,0.058963773
5.64,0.020224459,0.056596051,0.073919937,0.013692341796874999,0.058968332031249994
5.644,0.020224626953124998,0.056597023,0.073919969,0.013694655,0.058968933593749995
5.648,0.020222549,0.05659716,0.073918664,0.013696297851562499,0.05896709
5.652,0.02021782,0.05659441,0.073913703,0.013696297851562499,0.058962164062499996
5.656,0.020217285,0.056593371,0.073915273,0.01369613,0.058962094
5.66,0.02021943,0.056594711,0.073917859,0.013696365234374999,0.058963371093749994
5.664,0.020218357,0.056594374999999995,0.073916984,0.013696599609374999,0.058962633
5.668,0.020217217,0.056592664,0.073915078,0.013697035156249999,0.058961289
5.672,0.020213529296874998,0.056589348,0.073909211,0.013696197,0.058955422
5.676,0.020213463,0.056588339843749995,0.073912094,0.013694286132812499,0.05895502
5.68,0.020215675781249998,0.056589113,0.073917023,0.013694588,0.058957769531249996
5.684,0.020215943,0.056588207,0.073916281,0.013692744,0.058955992
5.688,0.02021259,0.056586094,0.073913898,0.013690263,0.058953715
5.692,0.020207896484374998,0.056581871,0.073908703,0.013687949218749999,0.058948281
5.696,0.020208232,0.056578617,0.073910617,0.013685703124999999,0.05894768
5.7,0.020208969,0.056578988,0.073915078,0.01368443,0.058950359
5.704,0.020206421874999998,0.056578046874999996,0.073914938,0.013684094,0.058949691
5.708,0.020204611,0.056576773,0.073912766,0.013683055,0.058948449
5.712,0.020199717,0.056573387,0.073907031,0.013681312,0.058944828124999994
5.716,0.020198912109374998,0.056571578,0.073909242,0.013680809,0.058945098
5.72,0.020200654,0.056572313,0.073913094,0.013681513,0.058948383
5.724,0.020199549,0.056571578,0.073912664,0.013682216796874999,0.058947242
5.728,0.020198543,0.056569766,0.073909547,0.013681377929687499,0.058945934
5.732,0.020194619140624998,0.056565574,0.073903344,0.013679567382812499,0.058940805
5.736,0.02019566,0.056563531,0.073904617,0.013678561523437499,0.058937016
5.74,0.020196900390624998,0.056564703,0.073908875,0.013677756835937499,0.058938859
5.744,0.020194654,0.056564637,0.073909312,0.013676182,0.058939800781249996
5.748,0.020191871093749997,0.056564066406249995,0.073908367,0.013674371,0.058938527
5.752,0.020185769531249998,0.056561051,0.073902875,0.013671521,0.058934
5.756,0.020183891,0.056560008,0.073906797,0.013669845,0.05893477
5.76,0.020186539062499998,0.056561285156249995,0.073912328,0.013669912,0.058937723
5.764,0.020184293,0.056560648,0.073911656,0.013670649,0.058938691
5.768,0.020181779,0.056560008,0.073909547,0.013672326171874999,0.058938289062499996
5.772,0.02017732,0.056557093749999995,0.073905719,0.013671789,0.058934133
5.776,0.020177387,0.056555683593749996,0.073909547,0.013671856,0.058935273
5.78,0.020179533,0.056555988,0.073915242,0.013672862,0.058940402
5.784,0.020178393,0.056556086,0.07391568,0.013672124999999999,0.058939734
5.788,0.020175643,0.056556086,0.073915914,0.013669912,0.058938156
5.792,0.020171016,0.056553070312499995,0.073911219,0.013667397,0.058932355468749996
5.796,0.020171184,0.056551461,0.073914375,0.013664782,0.058931082
5.8,0.020174838,0.056552129,0.073918695,0.013661832,0.058933297
5.804,0.020174168,0.056551797,0.07391957,0.013657909179687499,0.058933531
5.808,0.020171318,0.056550488,0.073919531,0.013654389,0.058933597656249996
5.812,0.020164713,0.056546664062499995,0.073915344,0.013651807,0.058931148
5.816,0.020162970703124998,0.056544921874999994,0.073917789,0.013651337890624999,0.058932691406249994
5.82,0.020164009765624998,0.056545695,0.073923055,0.013652041992187499,0.058936012
5.824,0.020161193,0.056544585937499996,0.073923227,0.013652746,0.058936516
5.828,0.020159014,0.056542640624999994,0.073922281,0.013652846679687499,0.058936781
5.832,0.020153884765624998,0.056538785,0.073916414,0.013651371,0.058931050781249994
5.836,0.02015127,0.056537410156249995,0.073919805,0.013650868,0.058931117
5.84,0.020153146,0.056539559,0.073924398,0.013651974609374999,0.058934031
5.844,0.020151973,0.056538382812499996,0.073923523,0.013652846679687499,0.058934836
5.848,0.020149895,0.05653634,0.073921047,0.013652611,0.058934301
5.852,0.02014443,0.056532281,0.073915648,0.013650968749999999,0.058929273
5.856,0.020141511718749998,0.056531043,0.073918867,0.013649628,0.05893202
5.86,0.020143758,0.056532785156249994,0.073924164,0.013650700195312499,0.058936277343749996
5.864,0.020143592,0.056533086,0.073923492,0.013652779296874999,0.058933328
5.868,0.020141244,0.05653198,0.073921414,0.013653214843749999,0.05893202
5.872,0.020137488281249998,0.056528996,0.073915445,0.013651807,0.058926188
5.876,0.020135779,0.056526515624999996,0.073916414,0.013652108,0.058924511718749996
5.88,0.02013665,0.056527219,0.073920906,0.013653886,0.058929574218749996
5.884,0.020135074,0.05652702,0.073920273,0.013654522460937499,0.058931585937499996
5.888,0.020132125,0.056526480468749994,0.073917859,0.013654253906249999,0.058930313
5.892,0.020127062499999997,0.056523429687499994,0.07391082,0.013652813,0.058926859374999994
5.896,0.020125453124999998,0.056521285,0.073911891,0.01365174,0.058928469
5.9,0.020128068359374997,0.056523297,0.07391625,0.013652913,0.05893209
5.904,0.020129441,0.056522828,0.073913703,0.013652075,0.058930781249999994
5.908,0.020128837890624997,0.056520281,0.073909609,0.013650634,0.058928734
5.912,0.020123811,0.056515484374999994,0.073901766,0.013648889648437499,0.058923203
5.916,0.020121865234374998,0.056512938,0.0739025,0.01364728,0.058923574
5.92,0.02012448,0.056514012,0.073904617,0.013646442382812499,0.058926289
5.924,0.020122871093749998,0.05651468,0.073902773,0.013645671,0.058925953
5.928,0.020120021,0.056514246,0.073899516,0.013645604,0.058923539062499995
5.932,0.02011583,0.056511562499999994,0.073892945,0.01364433,0.058918711
5.936,0.020115226562499998,0.056509449,0.073892711,0.013644363281249999,0.058918008
5.94,0.020117707031249998,0.056510624999999995,0.073895531,0.013646643554687499,0.058920285156249995
5.944,0.020116667968749998,0.056511027,0.073895297,0.013648185546874999,0.058919953
5.948,0.020114924,0.056509918,0.073893219,0.013649527343749999,0.058918508
5.952,0.0201105,0.056507941,0.073886844,0.013648521484374999,0.058912574
5.956,0.020108789,0.056507406249999996,0.07388718,0.013647783,0.058912542968749995
5.96,0.020111672,0.056509887,0.073892477,0.013648957031249999,0.058918039
5.964,0.020112879,0.056511262,0.073890703,0.013649125,0.058917871
5.968,0.02011241,0.056510723,0.073887953,0.013648185546874999,0.058916363281249995
5.972,0.020108689,0.056507809,0.073880242,0.013644866210937499,0.058910160156249995
5.976,0.020108050781249998,0.056505594,0.073879469,0.013642318359374999,0.058909558593749994
5.98,0.020110666,0.056507035156249996,0.073883391,0.01364252,0.058912641
5.984,0.020110332,0.056506601562499995,0.07388175,0.013643224,0.058913414062499996
5.988,0.020108621093749997,0.056504957,0.073877727,0.013643693359374999,0.058912039
5.992,0.020104465,0.056501504,0.073869273,0.013643625976562499,0.05890577
5.996,0.020103928,0.056498386718749995,0.073868305,0.013644263,0.058904261718749996
6,0.02010718,0.056498922,0.073870852,0.013646912,0.058906039
6.004,0.020107044921874997,0.056498050781249996,0.073868273,0.013648454101562499,0.058904832
6.008,0.020105303,0.056496308593749996,0.073864117,0.013649694335937499,0.058903355468749995
6.012,0.020101949218749998,0.056493121093749994,0.073857945,0.013650868,0.058899332031249994
6.016,0.020102117187499997,0.056490641,0.073856133,0.013651572,0.058897187499999996
6.02,0.020105637,0.056490508,0.073857742,0.01365231,0.058898828
6.024,0.020106140624999998,0.056491312499999995,0.073856266,0.01365164,0.058897320312499994
6.028,0.020102955,0.05649148,0.073853555,0.013652041992187499,0.05889484
6.032,0.02009843,0.056488359,0.073844969,0.013652143,0.058890516
6.036,0.020098898,0.056485945,0.07384232,0.013652578,0.05889075
6.04,0.02010185,0.056486785,0.073845438,0.013653583984374999,0.058895140624999995
6.044,0.02010024,0.05648732,0.073844195,0.013653919,0.058895711
6.048,0.020099066406249998,0.056487656,0.073841445,0.013653416,0.058894871093749995
6.052,0.0200934,0.056485812499999996,0.073835281,0.013651874,0.058890516
6.056,0.020091958984374998,0.056484574,0.073835953,0.013650131,0.05889048
6.06,0.020094574218749998,0.056485746,0.073839,0.013651103,0.058893094
6.064,0.020094574218749998,0.056485578,0.073837055,0.01365241,0.058891555
6.068,0.020093232,0.056484406,0.073833805,0.013653081054687499,0.058888835937499995
6.072,0.020089511718749998,0.056481523,0.073826531,0.01365164,0.058881832
6.076,0.020088236,0.056478906249999995,0.073826898,0.013651539062499999,0.058880625
6.08,0.020090818,0.056480078,0.073831125,0.01365298,0.058884914062499995
6.084,0.020091322,0.05648048,0.073829477,0.013652947,0.05888525
6.088,0.020089713,0.056480214843749994,0.073827438,0.013653214843749999,0.058884847656249996
6.092,0.020085855,0.056478539,0.07382093,0.01365241,0.058881125
6.096,0.020084347656249998,0.056477597656249996,0.073821602,0.013651404,0.058882734374999995
6.1,0.020087666,0.056480148437499995,0.073825758,0.013652646,0.058886757812499996
6.104,0.020087867,0.056480882812499994,0.073823914,0.013653383,0.058886422
6.108,0.020086494140624998,0.056480882812499994,0.073820898,0.013653986,0.058885586
6.112,0.02008351,0.056477902,0.073812414,0.01365298,0.058879551
6.116,0.020082402,0.056473675781249996,0.0738105,0.013652041992187499,0.058876602
6.12,0.020084246093749997,0.056474949,0.073815063,0.013654321,0.058879249999999994
6.124,0.02008485,0.056475117,0.073813719,0.013656803,0.058878344
6.128,0.020082672,0.056474582,0.073811609,0.013657271484374999,0.058878007812499994
6.132,0.02007734,0.056473172,0.073806578,0.013656937,0.058874085937499994
6.136,0.020078144531249998,0.056472035156249996,0.073805242,0.013656567,0.058873113
6.14,0.020080525,0.056473675781249996,0.073809633,0.01365868,0.058876465
6.144,0.020079988,0.056474582,0.073809297,0.013659786132812499,0.05887727
6.148,0.020078514,0.056474848,0.073808625,0.013660256,0.058877809
