time,F8,F4,Fz,F3,F7
0,-0.000268254,0.016619436,0.085901703,0.022503867,0.28008753124999997
0.004,-0.000266947,0.016619603515624998,0.085901398,0.022502828,0.280088531
0.008,-0.000265338,0.016618195,0.085901633,0.022502593749999997,0.280090375
0.012,-0.00026688,0.016618867,0.085903578,0.022503936,0.280089438
0.016,-0.000265136,0.016617895,0.085903547,0.022503768,0.280090781
0.02,-0.000263829,0.016616218749999998,0.085902703,0.022503834,0.280091813
0.024,-0.000269696,0.016617057,0.085904313,0.022507052734374998,0.28008737499999997
0.028,-0.000270735,0.016617793,0.085905789,0.022509031,0.280086813
0.032,-0.000268187,0.016616754,0.085905961,0.022508896,0.280089438
0.036,-0.000266042,0.016615414,0.085904617,0.022506584,0.280091375
0.04,-0.000269629,0.01661585,0.085905922,0.022506917968749998,0.280088813
0.044,-0.000268321,0.016617591796874998,0.085906695,0.022506953,0.280089813
0.048,-0.000266578,0.016616654,0.085904016,0.022504941,0.280090969
0.052,-0.000265941,0.016615246093749998,0.085902203,0.02250323,0.280091125
0.056,-0.000266746,0.016615212890624998,0.085902469,0.022503734374999997,0.280090781
0.06,-0.000266746,0.016615246093749998,0.085903445,0.022504873,0.280090563
0.064,-0.000264902,0.016615178,0.085903977,0.022507254,0.280091563
0.068,-0.000264835,0.016614742,0.085905086,0.022508797,0.280091813
0.072,-0.000264566,0.016614508,0.085905352,0.022508527343749998,0.28009212499999997
0.076,-0.000266343,0.01661424,0.08590532,0.022508596,0.280091125
0.08,-0.000266779,0.016614475,0.085905453,0.022509199218749998,0.280090844
0.084,-0.000265807,0.016615379,0.085905586,0.022508896,0.280091563
0.088,-0.000264432,0.016614373,0.085905055,0.022508025,0.280092781
0.092,-0.000263326,0.016612361,0.085903844,0.022506449,0.28009406249999996
0.096,-0.000265874,0.016612229,0.085903883,0.022505879,0.280091125
0.1,-0.000262756,0.016611289,0.085902469,0.022504705,0.28009331249999997
0.104,-0.000262421,0.016610115,0.085902703,0.02250484,0.280093719
0.108,-0.000262521,0.016608373,0.085902367,0.022505476562499998,0.28009390624999997
0.112,-0.000263661,0.016607869,0.085903211,0.022507254,0.280093
0.116,-0.000263493,0.016607533,0.085903813,0.022507791,0.280092594
0.12,-0.000262991,0.016608037109374998,0.085903344,0.022509131,0.280092813
0.124,-0.000263929,0.01660968,0.085904414,0.022511479,0.280092469
0.128,-0.000263929,0.016610752,0.085904352,0.022511479,0.280092781
0.132,-0.000261549,0.016609947265624998,0.085902977,0.022509533203124998,0.280095063
0.136,-0.00025662,0.016607635,0.085900695,0.022506953,0.28009909374999997
0.14,-0.0002589,0.016606059,0.085899789,0.022507389,0.280097375
0.144,-0.000260476,0.016604818,0.085899719,0.022507791,0.280096313
0.148,-0.000260845,0.016604852,0.085900695,0.022507891,0.280096313
0.152,-0.000261717,0.016605857,0.085902469,0.02250893,0.280095188
0.156,-0.000262085,0.016604518,0.085902875,0.022509734,0.28009475
0.16,-0.000262555,0.016603143,0.085902469,0.022510640624999998,0.280094188
0.164,-0.000261683,0.016603713,0.085901969,0.022510673828124998,0.280094625
0.168,-0.000260878,0.016603980468749998,0.085902406,0.022510137,0.28009568749999997
0.172,-0.000258297,0.016604281,0.08590257,0.022509031,0.280097938
0.176,-0.000257794,0.016603746,0.085902602,0.022508527343749998,0.28009875
0.18,-0.000261515,0.016606596,0.08590425,0.022509734,0.28009546874999997
0.184,-0.000257961,0.016607367,0.085903813,0.022508763671874998,0.280098531
0.188,-0.000256956,0.01660683,0.085903648,0.022508395,0.280099875
0.192,-0.00025823,0.016606059,0.08590418,0.022508965,0.280099438
0.196,-0.00025833,0.016605389,0.085904148,0.022509602,0.280099156
0.2,-0.000255782,0.016603611,0.085903211,0.022510205078124998,0.28010087499999997
0.204,-0.000255011,0.016603544921874998,0.085903547,0.022511311,0.280101719
0.208,-0.000256117,0.016603845703124998,0.085905219,0.022511746,0.2801015
0.212,-0.000255279,0.016605725,0.085906492,0.022511746,0.280101813
0.216,-0.000251792,0.016606729,0.08590532,0.022509199218749998,0.28010481249999997
0.22,-0.000255346,0.01660616,0.085905586,0.022509869,0.28010184374999997
0.224,-0.000254676,0.01660683,0.085905891,0.022509467,0.280101719
0.228,-0.000253771,0.016607332031249998,0.085905219,0.022508091796874997,0.280102531
0.232,-0.000253871,0.016607367,0.085905086,0.02250702,0.280102688
0.236,-0.000252631,0.016607434,0.08590482,0.022506181640624998,0.280103688
0.24,-0.000248607,0.016604953,0.085902906,0.022505746093749997,0.28010643749999997
0.244,-0.000252899,0.016602908,0.085904352,0.022509434,0.280103531
0.248,-0.000253268,0.016602974609374998,0.085906391,0.022511947,0.280103063
0.252,-0.000253703,0.016602974609374998,0.085907133,0.022512249999999998,0.280103344
0.256,-0.000254039,0.016601734,0.085906297,0.022511076171874998,0.280103719
0.26,-0.000253268,0.016601131,0.085905758,0.022510004,0.280104156
0.264,-0.000253033,0.016600795,0.085905523,0.022509299,0.28010421874999997
0.268,-0.000255413,0.016599488281249998,0.085906195,0.022509936,0.280102313
0.272,-0.000256788,0.016598314,0.085906695,0.022510607,0.280101313
0.276,-0.000257727,0.016597341796874998,0.085906594,0.022510506,0.280100781
0.28,-0.000259772,0.016596436,0.085907602,0.022512148,0.280099063
0.284,-0.000259236,0.016595498,0.085907602,0.022513222656249998,0.280099313
0.288,-0.00025994,0.016594458984374998,0.085909477,0.022515234,0.28009875
0.292,-0.00026051,0.016594123,0.085911422,0.022517045,0.28009825
0.296,-0.000259738,0.016594627,0.085912195,0.022517246,0.280098625
0.3,-0.000258163,0.016594189453124998,0.085912328,0.022517177734374998,0.280099781
0.304,-0.000257727,0.016593318359374998,0.085912359,0.022516541,0.28010028124999997
0.308,-0.000258733,0.016592346,0.08591243,0.022515234,0.28009940624999996
0.312,-0.000256184,0.01659134,0.085911289,0.022514229,0.28010124999999997
0.316,-0.000256084,0.016589697265624998,0.085910516,0.022513625,0.280101813
0.32,-0.000262789,0.016590166015624998,0.085912023,0.022516406,0.280096625
0.324,-0.000263628,0.016591273437499998,0.085912258,0.022516406,0.28009575
0.328,-0.000263963,0.016591273437499998,0.085911727,0.0225154,0.280096188
0.332,-0.000262152,0.016589195,0.085911523,0.022515033,0.280097594
0.336,-0.000262085,0.016587115234374998,0.085909516,0.022512418,0.280097656
0.34,-0.000264969,0.016586947,0.085908273,0.022511344,0.280095063
0.344,-0.000267416,0.016587049,0.085908844,0.022512619,0.280093
0.348,-0.000265941,0.016589094,0.085911258,0.022516441,0.28009406249999996
0.352,-0.000268556,0.016594994,0.085917023,0.022521537,0.280092156
0.356,-0.000274625,0.016596033,0.085918695,0.022522810546874997,0.280086594
0.36,-0.000275832,0.016585373,0.085909008,0.022515033,0.28008525
0.364,-0.000274792,0.016584938,0.085906359,0.022513725,0.280085719
0.368,-0.000267617,0.016594592,0.085908234,0.022513826171874998,0.280091844
0.372,-0.00026517,0.016586781249999998,0.085903313,0.02250732,0.280094094
0.376,-0.000265505,0.016573303,0.085893188,0.022497498046874998,0.280093969
0.38,-0.000265438,0.016565523,0.085887453,0.022493977,0.280093813
0.384,-0.000263661,0.016564184,0.085888555,0.022496324,0.28009487499999997
0.388,-0.000257224,0.016565457031249998,0.085887984,0.02249458,0.280099781
0.392,-0.000256453,0.016559053,0.085879805,0.022485830078124998,0.280100375
0.396,-0.000249982,0.016555633,0.085874914,0.022481438,0.280104625
0.4,-0.000238348,0.016552852,0.085871258,0.022478252,0.280114031
0.404,-0.000230704,0.016552717,0.085868977,0.022476945,0.280120813
0.408,-0.000230704,0.016552281,0.085866023,0.022473424,0.28012106249999996
0.412,-0.000227518,0.016551242,0.085862672,0.022469803,0.280124
0.416,-0.000225339,0.016554158,0.085862336,0.022468529296874998,0.28012575
0.42,-0.00022202,0.01655865,0.085861672,0.022467926,0.280127938
0.424,-0.000216421,0.016560932,0.085860258,0.022466385,0.280132469
0.428,-0.000213437,0.016563914,0.085859156,0.022464439,0.280135563
0.432,-0.000207402,0.016565189,0.085858453,0.022462764,0.280140281
0.436,-0.00020311,0.016567033203124998,0.085858922,0.022462764,0.280144438
0.44,-0.000199322,0.016570352,0.085858281,0.022462629,0.28014709374999996
0.444,-0.000195768,0.016572396484374998,0.085858352,0.022462929687499997,0.28014968749999997
0.448,-0.000193387,0.016575648,0.085859586,0.022463199,0.280151656
0.452,-0.000195332,0.016580041015624998,0.085862102,0.022465311,0.280150469
0.456,-0.000192817,0.016585473,0.08586532,0.022466451,0.28015249999999997
0.46,-0.000187989,0.016589261718749998,0.085866734,0.022467658203124997,0.28015599999999996
0.464,-0.000184536,0.016591171874999998,0.085866797,0.022468060546874998,0.280158938
0.468,-0.000184234,0.016592514,0.085868305,0.022468664062499998,0.280159906
0.472,-0.000184268,0.016594189453124998,0.085870453,0.022469871,0.280160625
0.476,-0.000183061,0.016596369,0.085871797,0.022470003906249997,0.280161469
0.48,-0.000187151,0.016598816406249998,0.08587357,0.022472217,0.280158188
0.484,-0.000187721,0.016600861,0.085875578,0.022475102,0.28015746874999997
0.488,-0.000182591,0.016602605,0.085876422,0.022474832,0.280161344
0.492,-0.0001784,0.016603746,0.085876891,0.022473591796874998,0.28016534374999996
0.496,-0.000181116,0.01660626,0.085878633,0.022476039062499998,0.280163906
0.5,-0.000181384,0.016610082,0.085880648,0.022477951,0.28016340624999997
0.504,-0.000179205,0.016612229,0.085880844,0.022478119,0.280165219
0.508,-0.00017944,0.016614039,0.085881883,0.022479023,0.280165094
0.512,-0.000178166,0.016615949,0.085883258,0.022479861,0.28016599999999997
0.516,-0.000176322,0.016617156,0.085885336,0.022480666015624998,0.28016775
0.52,-0.000175349,0.016617492,0.08588732,0.022481671874999998,0.28016831249999996
0.524,-0.000175651,0.016618027343749998,0.08588893,0.022483852,0.28016775
0.528,-0.000175148,0.01661833,0.085890438,0.022484758,0.28016831249999996
0.532,-0.00017364,0.016619033203124998,0.085890867,0.022484992,0.28016993749999997
0.536,-0.000173002,0.016620477,0.085890836,0.02248516,0.280170344
0.54,-0.00017488,0.016623056640624998,0.085891508,0.022486734374999998,0.28016831249999996
0.544,-0.000174075,0.01662517,0.085892477,0.022488244,0.280168656
0.548,-0.000173539,0.016625941,0.085892383,0.022488613,0.280170188
0.552,-0.000174914,0.016628154,0.085892578,0.022489385,0.280169594
0.556,-0.000175953,0.016631238,0.085893047,0.022489184,0.280169
0.56,-0.000172231,0.016633686,0.085892711,0.022487874999999997,0.280171781
0.564,-0.000171829,0.016635262,0.085892648,0.022488244,0.280172125
0.568,-0.000178467,0.016637508,0.085895836,0.022492234,0.280166813
0.572,-0.000178166,0.016638379,0.085897375,0.022494279,0.28016756249999997
0.576,-0.000176389,0.016639050781249998,0.085897344,0.022494313,0.280169063
0.58,-0.000176322,0.01664009,0.085896875,0.022494949218749997,0.280169063
0.584,-0.000177931,0.0166419,0.085897844,0.022496459,0.280168094
0.588,-0.000179272,0.016641867,0.085899484,0.022497363,0.280167094
0.592,-0.000180546,0.016642303,0.085900859,0.022497966796874998,0.280166688
0.596,-0.000180949,0.016643074218749998,0.085901328,0.022498738,0.280166875
0.6,-0.000181586,0.016645051,0.085901563,0.022499074218749998,0.28016659374999997
0.604,-0.000181284,0.016645822,0.085902703,0.022500113281249998,0.280167031
0.608,-0.000182088,0.016645990234374998,0.085903977,0.022501051,0.280167219
0.612,-0.000182793,0.016647098,0.085905352,0.022500717,0.280166938
0.616,-0.000184871,0.016649779,0.085906531,0.022502425781249998,0.28016540624999997
0.62,-0.000187285,0.016652058593749998,0.085908406,0.022506046874999998,0.28016281249999997
0.624,-0.000188123,0.016653803,0.085909781,0.022508058593749998,0.28016199999999997
0.628,-0.000188325,0.016653971,0.085910789,0.022508563,0.280162625
0.632,-0.000190336,0.016654373,0.085912125,0.022509199218749998,0.280161656
0.636,-0.00019161,0.016655646484374998,0.085913297,0.022510640624999998,0.28016059374999996
0.64,-0.000188828,0.016656854,0.085914102,0.022510205078124998,0.280162125
0.644,-0.000187386,0.016657556640624998,0.085913836,0.022509097656249998,0.280163313
0.648,-0.000194024,0.016657792968749998,0.085915313,0.022510640624999998,0.280157938
0.652,-0.000192415,0.016657322,0.085916047,0.022510205078124998,0.28015962499999997
0.656,-0.000192314,0.016656988,0.085916016,0.022510037,0.280159875
0.66,-0.000194293,0.016658932,0.085917391,0.022511544921874998,0.28015825
0.664,-0.000193119,0.016659803,0.085917625,0.022511746,0.280159219
0.668,-0.000192482,0.016660676,0.085917422,0.022511613,0.280160406
0.672,-0.000190638,0.016660574218749998,0.085915914,0.022509533203124998,0.28016156249999996
0.676,-0.000190705,0.016661177734374998,0.085914477,0.022508596,0.280161344
0.68,-0.000191543,0.01666282,0.085914375,0.022509031,0.280160094
0.684,-0.000190068,0.016663525,0.085913836,0.022506717,0.28016075
0.688,-0.000188056,0.016662922,0.085912531,0.022504672,0.280162188
0.692,-0.000192817,0.016662084,0.085913734,0.022506551,0.28015940624999996
0.696,-0.000195801,0.01666309,0.085916047,0.022509064453124998,0.280156938
0.7,-0.000195198,0.016663826,0.085916047,0.022510205078124998,0.28015778124999996
0.704,-0.000196472,0.016663759765624998,0.085915813,0.022511311,0.28015687499999997
0.708,-0.000195835,0.016664699,0.085915852,0.022511244140624997,0.280157313
0.712,-0.0001955,0.016664666,0.085915109,0.022510977,0.280157875
0.716,-0.000197712,0.016665168,0.085914711,0.022510707,0.280156156
0.72,-0.000199053,0.016664666,0.085914812,0.022510539062499998,0.28015475
0.724,-0.000197913,0.016664598,0.085914906,0.022510673828124998,0.28015575
0.728,-0.000197243,0.016665705,0.085915414,0.022510941,0.28015675
0.732,-0.000197846,0.016667314,0.085916016,0.022510305,0.28015625
0.736,-0.000196706,0.016667615,0.085915648,0.022508494140624998,0.280156563
0.74,-0.000198182,0.016667615,0.085915211,0.022508628906249998,0.2801555
0.744,-0.000200026,0.016668756,0.085915984,0.022510037,0.280153531
0.748,-0.000197846,0.016668555,0.085916086,0.022510406,0.280155
0.752,-0.000197444,0.016667783203124998,0.08591568,0.022510373,0.280155313
0.756,-0.000197444,0.01666899,0.085915617,0.022510137,0.280155094
0.76,-0.000197511,0.016671035,0.085915578,0.022510172,0.28015481249999996
0.764,-0.00019788,0.016673148,0.085916422,0.022510506,0.280154031
0.768,-0.000197846,0.016673148,0.085917156,0.022510574,0.280153969
0.772,-0.000199188,0.016672980468749998,0.085918398,0.022512016,0.28015275
0.776,-0.000198651,0.016672710937499998,0.085918969,0.022511746,0.280152938
0.78,-0.00019845,0.016672912,0.085919164,0.022511479,0.280153656
0.784,-0.000199322,0.016672545,0.085919641,0.022512619,0.280152969
0.788,-0.000198282,0.016672611,0.085919969,0.022512182,0.28015425
0.792,-0.000203479,0.016674656,0.085922086,0.022514730468749997,0.28015043749999996
0.796,-0.000201702,0.016676131,0.085922422,0.02251567,0.280151344
0.8,-0.00019912,0.01667583,0.085921953,0.022515502,0.280153813
0.804,-0.000199456,0.016675227,0.08592182,0.0225154,0.28015324999999996
0.808,-0.000199925,0.016675292968749998,0.085921852,0.022515334,0.280152969
0.812,-0.00020187,0.016674389,0.085922586,0.022514764,0.280151656
0.816,-0.000201736,0.01667308,0.085922383,0.022514764,0.280151656
0.82,-0.000199221,0.016670734,0.085921781,0.022515601562499998,0.280153156
0.824,-0.000198416,0.016669023,0.085921516,0.022515535,0.28015368749999997
0.828,-0.000198115,0.016668855,0.085920375,0.022513322,0.280154094
0.832,-0.00019617,0.016668018,0.085918766,0.022511076171874998,0.280155656
0.836,-0.000198282,0.016668086,0.085919734,0.022512249999999998,0.280153875
0.84,-0.00020073,0.016669762,0.085921719,0.022514595703124998,0.28015103124999996
0.844,-0.000199456,0.016670197,0.085921781,0.022515132812499998,0.280151875
0.848,-0.000199456,0.0166709,0.085922484,0.022516171874999998,0.280151969
0.852,-0.000198215,0.016671773,0.085923625,0.02251691,0.280152781
0.856,-0.000197679,0.016671068,0.085922992,0.02251577,0.28015362499999996
0.86,-0.000197679,0.016670063,0.085921578,0.022515199,0.28015384374999996
0.864,-0.000197612,0.016668789062499998,0.085921914,0.022516205,0.280154031
0.868,-0.000197813,0.016667684,0.085922422,0.022516475,0.28015425
0.872,-0.000198349,0.016667816,0.08592225,0.022516406,0.280154313
0.876,-0.000199355,0.016668218749999998,0.08592232,0.022516977,0.280153188
0.88,-0.000196941,0.016667816,0.08592175,0.022517246,0.28015481249999996
0.884,-0.000194795,0.016667381,0.08592168,0.022516574,0.28015681249999996
0.888,-0.000194326,0.016667212890624998,0.085921516,0.022516072,0.280157531
0.892,-0.000194494,0.016666477,0.085920977,0.02251577,0.28015775
0.896,-0.000194829,0.016665604,0.08592068,0.022516273437499998,0.280157656
0.9,-0.000194427,0.016664027,0.085920844,0.022517279296874998,0.28015784374999997
0.904,-0.000194192,0.01666527,0.085921781,0.022519424,0.28015806249999997
0.908,-0.000194225,0.016665838,0.08592393,0.022521436,0.28015825
0.912,-0.000193756,0.016666074,0.085925602,0.022522543,0.28015843749999997
0.916,-0.000194829,0.016667816,0.08592668,0.022523717,0.280157719
0.92,-0.000195701,0.016668119,0.085927148,0.02252442,0.280157
0.924,-0.000197008,0.01666832,0.085927547,0.022524486,0.28015643749999997
0.928,-0.000198148,0.016668287,0.085927852,0.022524386718749997,0.280156625
0.932,-0.000199322,0.016667615,0.085927688,0.022523984,0.280156188
0.936,-0.000200696,0.016667816,0.085928352,0.022525492,0.28015465624999997
0.94,-0.000201736,0.016669092,0.085929195,0.022527839843749998,0.280153969
0.944,-0.000203982,0.01666899,0.085930102,0.022528878906249997,0.280152469
0.948,-0.000204518,0.016667951,0.08593107,0.022529014,0.28015206249999997
0.952,-0.000205055,0.016668453,0.085932039,0.022528477,0.280151969
0.956,-0.000202071,0.016668251953124998,0.085930531,0.022526566,0.280153906
0.96,-0.000198718,0.01666651,0.085928922,0.02252566,0.28015687499999997
0.964,-0.000206899,0.016668051,0.085931641,0.02252908,0.280150813
0.968,-0.000206765,0.016668891,0.085933484,0.022529818,0.28015028124999997
0.972,-0.000205558,0.016667984,0.085933688,0.022530154,0.280151281
0.976,-0.000205256,0.016667281,0.085934086,0.022530791,0.280151813
0.98,-0.00020472,0.016667347656249998,0.085934219,0.022531527,0.280152594
0.984,-0.000204384,0.016666777343749998,0.085933414,0.022530992187499998,0.280153188
0.988,-0.000203714,0.016666408,0.085932883,0.022529953,0.280154094
0.992,-0.00020539,0.016665436,0.085933586,0.022530824,0.28015303124999996
0.996,-0.000207234,0.016664732,0.08593432,0.022531863281249998,0.280151531
1,-0.000207737,0.016665168,0.085934727,0.022532803,0.280150625
1.004,-0.000205625,0.016664564,0.085933883,0.02253317,0.280152406
1.008,-0.000205088,0.016663189453124998,0.085934961,0.022534277,0.280153375
1.012,-0.000205323,0.01666158,0.085935164,0.022534613281249997,0.280154031
1.016,-0.000205927,0.016660574218749998,0.085934758,0.022534613281249997,0.280153188
1.02,-0.000204988,0.016661379,0.085935633,0.022534947265624997,0.280153938
1.024,-0.000205759,0.016662586,0.085936867,0.022536490234374998,0.280153406
1.028,-0.000208508,0.016663021,0.085938414,0.022539039,0.280151438
1.032,-0.000210252,0.016662486,0.085939016,0.022539877,0.280150563
1.036,-0.000205591,0.016660004,0.085937406,0.022537697,0.280154188
1.04,-0.000206564,0.016658798828124998,0.085937375,0.022538501953124998,0.28015368749999997
1.044,-0.000206564,0.016658664,0.085937375,0.022539574,0.280154156
1.048,-0.00020596,0.016658027,0.085936633,0.022539976562499998,0.280155188
1.052,-0.000205457,0.016656787109374998,0.08593593,0.022539541015624998,0.280155938
1.056,-0.00020425,0.016655982,0.085935562,0.022538367,0.280157156
1.06,-0.000206564,0.016655479,0.085935461,0.022538469,0.280155094
1.064,-0.000206094,0.016654539062499998,0.085935258,0.022539373,0.280155188
1.068,-0.000206999,0.016653499999999998,0.085935828,0.022541721,0.28015481249999996
1.072,-0.000208307,0.016653031,0.085937578,0.022544033203124998,0.280154375
1.076,-0.000208911,0.016652695,0.085937945,0.022544939,0.280154094
1.08,-0.000208173,0.016652527343749998,0.085937609,0.022545844,0.280154406
1.084,-0.000207167,0.016651891,0.085937773,0.022546179687499997,0.28015546874999997
1.088,-0.000210486,0.016651287,0.085938711,0.022546951,0.280153188
1.092,-0.000211425,0.016651891,0.085939453,0.022546783,0.280152094
1.096,-0.000206865,0.016651521,0.085937813,0.022545676,0.28015562499999996
1.1,-0.000209849,0.016651689,0.085939047,0.022548125,0.280152938
1.104,-0.000210419,0.016652395,0.085939688,0.022549666015624997,0.280152313
1.108,-0.000212163,0.016652729,0.085940859,0.022550773437499998,0.280150813
1.112,-0.000212599,0.016652428,0.085941602,0.02255141,0.280150469
1.116,-0.000211224,0.016651355,0.085941031,0.022551711,0.28015103124999996
1.12,-0.000208408,0.016650684,0.085939922,0.022550773437499998,0.280153281
1.124,-0.000207871,0.01665035,0.085939688,0.022550303,0.280154125
1.128,-0.000207502,0.01665008,0.085939352,0.022548895,0.280154719
1.132,-0.000207771,0.016649476562499998,0.085939852,0.022548291,0.28015503124999996
1.136,-0.000208844,0.016647666,0.085940156,0.022549095703124997,0.280154031
1.14,-0.000207871,0.016646393,0.085939688,0.02255027,0.280154719
1.144,-0.000205524,0.016645152,0.085939484,0.022550605,0.28015606249999997
1.148,-0.000208609,0.016643609,0.085940523,0.022552014,0.280153906
1.152,-0.000209145,0.016642503906249998,0.085941195,0.022553521,0.28015368749999997
1.156,-0.000207402,0.016642068359374998,0.085941695,0.022554158,0.280154688
1.16,-0.000204954,0.016641531,0.085940656,0.022553723,0.280156625
1.164,-0.000208475,0.016641867,0.085941602,0.022554629,0.280154031
1.168,-0.000207335,0.016642135,0.085941602,0.022554729,0.280154906
1.172,-0.000207435,0.016641699,0.085941867,0.022554896,0.280155375
1.176,-0.000207737,0.016640056640624998,0.085942,0.022555064,0.280155313
1.18,-0.000208944,0.016640258,0.085942367,0.022556641,0.280154031
1.184,-0.000207637,0.016640559,0.085942602,0.022557142578124998,0.280154563
1.188,-0.000205826,0.016638949,0.085943039,0.02255607,0.280156469
1.192,-0.000207603,0.016637072,0.085943711,0.022556406249999997,0.280155563
1.196,-0.000209179,0.016636805,0.085944648,0.022558016,0.280153813
1.2,-0.000209179,0.016636468749999998,0.085944781,0.022559557,0.280153
1.204,-0.000209715,0.016637172,0.08594525,0.022560664,0.28015275
1.208,-0.000209648,0.016636535,0.085946055,0.022560998,0.280153219
1.212,-0.000210252,0.016635697,0.085946828,0.022560763671874998,0.28015346874999997
1.216,-0.000212464,0.016635195,0.085947602,0.0225611,0.28015184374999996
1.22,-0.000213705,0.016635061,0.085947164,0.022561199218749998,0.28015071874999997
1.224,-0.000214141,0.01663449,0.085947367,0.022562004,0.28014984374999996
1.228,-0.000213571,0.016633988281249998,0.085948234,0.022562808593749997,0.28015012499999997
1.232,-0.000213303,0.016632914,0.085948234,0.022562039,0.28015049999999997
1.236,-0.000212297,0.016632914,0.085946188,0.02256016,0.280151125
1.24,-0.000213504,0.016631439,0.085945523,0.022561033,0.280150156
1.244,-0.000218432,0.016631238,0.085948234,0.022564451,0.280145781
1.248,-0.00021736,0.016628992,0.08594857,0.02256452,0.280146813
1.252,-0.000216957,0.016626914062499998,0.085948469,0.022564117,0.280147219
1.256,-0.000215884,0.016625438,0.085946594,0.02256301,0.280147781
1.26,-0.000215348,0.016624867,0.085945625,0.022563145,0.280147938
1.264,-0.000215415,0.016624098,0.085944883,0.022562541,0.280148219
1.268,-0.000215147,0.016623258,0.085944719,0.022562373,0.280148438
1.272,-0.000216153,0.016621918,0.08594525,0.022562306640624998,0.280148156
1.276,-0.000215046,0.016621012,0.085944109,0.022561268,0.28014909374999997
1.28,-0.000216287,0.016619939,0.085943273,0.022562676,0.280148188
1.284,-0.000216689,0.016618396,0.085943375,0.022564117,0.28014806249999996
1.288,-0.000218298,0.016618229,0.085943977,0.022565592,0.28014709374999996
1.292,-0.000221182,0.016619873,0.085945289,0.022567436,0.280145031
1.296,-0.000223193,0.016621414,0.085946156,0.022568676,0.280143469
1.3,-0.000226043,0.016621615234374998,0.085946562,0.022569414062499998,0.28014093749999996
1.304,-0.00022839,0.016622755859374998,0.085947562,0.022570051,0.280139344
1.308,-0.000230536,0.016623359,0.085948469,0.022570453,0.280138094
1.312,-0.000232581,0.016624098,0.085950688,0.022571963,0.28013640624999997
1.316,-0.00023409,0.016625371,0.085951992,0.02257317,0.28013462499999997
1.32,-0.00023523,0.01662527,0.085953234,0.022574711,0.28013321874999997
1.324,-0.000234727,0.016624098,0.085953336,0.022575785,0.28013375
1.328,-0.000240594,0.016624029,0.085954273,0.022577125,0.28012921874999996
1.332,-0.000241466,0.016625975,0.08595518,0.022577158,0.28012899999999996
1.336,-0.000241064,0.016626611,0.085955312,0.022578131,0.280128781
1.34,-0.000240393,0.016626443,0.085955477,0.022578935546874998,0.280129094
1.344,-0.000241801,0.016626109,0.085955883,0.022578434,0.28012787499999997
1.348,-0.000248574,0.016626311,0.085957891,0.022580479,0.280122969
1.352,-0.000251558,0.016626914062499998,0.085958867,0.022580544921874997,0.280120875
1.356,-0.000251658,0.016627115,0.085958969,0.022579439,0.280120594
1.36,-0.000248607,0.016626443,0.085958664,0.022579338,0.280122438
1.364,-0.000245657,0.016625203124999998,0.085956555,0.022578701,0.280124813
1.368,-0.000245858,0.016624029,0.085955445,0.022579004,0.280124781
1.372,-0.000247065,0.016622588,0.085955273,0.022579371093749998,0.280124438
1.376,-0.000252597,0.016622588,0.085957187,0.022581216796874998,0.28011934374999997
1.38,-0.000251357,0.016623158,0.085956984,0.022581283,0.280120125
1.384,-0.000251759,0.016623359,0.085957359,0.022581550781249998,0.28012009374999997
1.388,-0.00025253,0.016622924,0.085958297,0.022583228515624998,0.280119688
1.392,-0.000252329,0.01662108,0.085958195,0.022583395,0.280120219
1.396,-0.000252262,0.016619134765624998,0.085956922,0.022582992187499998,0.280120375
1.4,-0.000254575,0.016618027343749998,0.085956687,0.022583631,0.280118375
1.404,-0.000256754,0.016619838,0.085958695,0.022585172,0.280117063
1.408,-0.000257492,0.016619771,0.085959234,0.022585003906249998,0.280117313
1.412,-0.000259236,0.016619102,0.08595893,0.022584971,0.280116344
1.416,-0.000260912,0.016618162,0.085959,0.022584568359374998,0.280114594
1.42,-0.000259873,0.016618063,0.085957992,0.022582959,0.28011525
1.424,-0.000259403,0.016619269531249998,0.085957789,0.022582121093749997,0.280115688
1.428,-0.000260074,0.016619402,0.085958063,0.022582826,0.280115063
1.432,-0.000261113,0.016619504,0.085958023,0.022584301,0.280114094
1.436,-0.000261985,0.016618799,0.085958695,0.022585708984374998,0.280113219
1.44,-0.000262488,0.016619,0.085959031,0.022586042968749998,0.280112438
1.444,-0.000262789,0.016618498,0.085959063,0.022586313,0.280112031
1.448,-0.00026232,0.016619102,0.085958797,0.022585641,0.28011274999999997
1.452,-0.000266511,0.016619234,0.085959969,0.022585708984374998,0.28010975
1.456,-0.000267416,0.016620140624999998,0.085960742,0.022585842,0.280109063
1.46,-0.000267886,0.016619637,0.085960039,0.022585003906249998,0.280108719
1.464,-0.000268623,0.016618666,0.085960008,0.022585172,0.28010881249999997
1.468,-0.000270031,0.016617727,0.085960305,0.022584703124999998,0.280107906
1.472,-0.000272814,0.01661843,0.085961109,0.022585708984374998,0.280105656
1.476,-0.000271641,0.016618732,0.085960906,0.022587619140624998,0.280106531
1.48,-0.000270367,0.01661766,0.085960641,0.022588591796874998,0.280107531
1.484,-0.000272278,0.01661833,0.085961648,0.022589832,0.280105656
1.488,-0.000273116,0.016619369,0.085962891,0.022590167968749998,0.280104625
1.492,-0.000273719,0.016619102,0.085964227,0.022590469,0.28010443749999997
1.496,-0.000274826,0.016618666,0.085963891,0.022590469,0.280103375
1.5,-0.000275362,0.016618564453124998,0.085962953,0.022590268,0.280102563
1.504,-0.000276133,0.016617994,0.085963086,0.022590705,0.280101813
1.508,-0.000277642,0.016617928,0.085963156,0.022590838,0.280101
1.512,-0.000278715,0.01661709,0.08596225,0.022591576,0.280100469
1.516,-0.000279654,0.016615949,0.085962148,0.022593119,0.280099656
1.52,-0.000280492,0.016616084,0.085963227,0.022594191,0.280098313
1.524,-0.000280894,0.016617223,0.085963594,0.022593723,0.280098031
1.528,-0.000282336,0.01661682,0.085964461,0.022594023,0.28009709374999997
1.532,-0.000283141,0.016616586,0.085964664,0.022594125,0.280096844
1.536,-0.000282839,0.016615916,0.085964094,0.022594627,0.28009675
1.54,-0.000283107,0.016615816,0.085963422,0.022595398,0.280096219
1.544,-0.00028133,0.016616621,0.08596275,0.022594929687499998,0.28009724999999996
1.548,-0.000281062,0.016616318,0.085963086,0.022594359374999998,0.28009775
1.552,-0.000285756,0.016616385,0.085964227,0.0225959,0.28009428124999997
1.556,-0.000285722,0.016614307,0.085963289,0.022595633,0.280094594
1.56,-0.000286024,0.016613469,0.085962688,0.022595969,0.280094188
1.564,-0.00028361,0.016614508,0.08596282,0.022596773,0.28009584374999996
1.568,-0.000280425,0.016613703,0.08596232,0.022595465,0.280098781
1.572,-0.000281464,0.016613301,0.085962555,0.022594996,0.280098594
1.576,-0.000286359,0.016615145,0.085965,0.022597543,0.280094406
1.58,-0.000284616,0.016615313,0.085964602,0.022597710937499998,0.280095563
1.584,-0.000284549,0.016613871,0.085962656,0.0225959,0.280095719
1.588,-0.000285454,0.016613469,0.085962219,0.022595398,0.280095344
1.592,-0.000287633,0.016613469,0.08596225,0.022595263671874997,0.280094531
1.596,-0.000289511,0.016612697,0.08596232,0.022594963,0.28009324999999996
1.6,-0.000291489,0.016611391,0.085963055,0.022596773,0.28009168749999996
1.604,-0.000290986,0.016610953124999998,0.085963156,0.022597812499999998,0.280092188
1.608,-0.000291221,0.016610183593749998,0.085963656,0.022597779,0.280092531
1.612,-0.000292093,0.016610854,0.085965906,0.022599791,0.280091625
1.616,-0.000293836,0.016611189453124998,0.085967078,0.022602003906249998,0.280089969
1.62,-0.000297759,0.016610887,0.08596825,0.022604349609374998,0.28008625
1.624,-0.000296451,0.016610082,0.085968586,0.022604451171874998,0.280087625
1.628,-0.000295714,0.016610316,0.08596882,0.022603578,0.28008849999999996
1.632,-0.000295345,0.016611121,0.085968523,0.022603109,0.280089031
1.636,-0.000295613,0.016610082,0.085966773,0.022602572,0.280088438
1.64,-0.000294942,0.016608842,0.085964297,0.022601668,0.28008893749999997
1.644,-0.00029387,0.0166075,0.085963188,0.02260083,0.28009
1.648,-0.000294775,0.016607232,0.085963758,0.022601031,0.280090031
1.652,-0.000296552,0.016606494,0.085964969,0.022602707,0.280088969
1.656,-0.000298563,0.01660502,0.085965734,0.022604886718749998,0.2800875
1.66,-0.00030148,0.016606562499999998,0.085967445,0.022606764,0.28008525
1.664,-0.000302654,0.016608506,0.085968523,0.022607133,0.280083938
1.668,-0.000302453,0.016609445,0.085968922,0.022606865,0.280083813
1.672,-0.000303593,0.016610048828124998,0.085969664,0.022607635,0.280083063
1.676,-0.000303391,0.016610082,0.085969125,0.022607031,0.280082969
1.68,-0.000302922,0.016609379,0.085968453,0.022607367187499998,0.280082906
1.684,-0.000302453,0.016608506,0.085967516,0.02260673,0.280083063
1.688,-0.000302251,0.016608037109374998,0.085967312,0.022605758,0.280083281
1.692,-0.000303257,0.016607668,0.085968758,0.022606830078124997,0.28008275
1.696,-0.000303593,0.016608172,0.085969797,0.022607937499999998,0.280082688
1.7,-0.00030376,0.016606896484374998,0.085970797,0.02261015,0.280082156
1.704,-0.000305638,0.016605689,0.085972375,0.022611826,0.280081063
1.708,-0.000308085,0.016605623,0.08597382,0.022612564453124998,0.28007981249999997
1.712,-0.000307381,0.016605287,0.085972977,0.022611324,0.28008062499999997
1.716,-0.000307783,0.016605188,0.085972109,0.02261015,0.280080594
1.72,-0.000306174,0.016605086,0.085972008,0.022610318,0.28008174999999996
1.724,-0.000309426,0.016604014,0.085972141,0.022611826,0.280078969
1.728,-0.000309393,0.016602506,0.085970969,0.022612363,0.280079344
1.732,-0.000309762,0.016602908,0.085970797,0.022611423828124998,0.280079406
1.736,-0.000310197,0.016602203,0.085970469,0.022610417968749998,0.280079656
1.74,-0.000311505,0.016601365,0.085970531,0.022610384765624998,0.280078375
1.744,-0.00031288,0.016599386718749998,0.085970469,0.022611324,0.28007725
1.748,-0.000313114,0.016597476562499998,0.085971875,0.022613738,0.280077625
1.752,-0.00031459,0.016597074,0.085973586,0.02261642,0.280076813
1.756,-0.000314657,0.016597275,0.085973047,0.022616924,0.28007624999999997
1.76,-0.000315193,0.016597275,0.085972781,0.022616722656249998,0.280075563
1.764,-0.000314288,0.016598281,0.085972406,0.022616453124999998,0.280076063
1.768,-0.000313617,0.016599923828124998,0.085972109,0.022615011718749998,0.280076531
1.772,-0.000314154,0.016600392578124998,0.085971469,0.022613504,0.28007640624999997
1.776,-0.000316266,0.016599957031249998,0.085971469,0.022614005859374998,0.28007462499999997
1.78,-0.000316132,0.016599386718749998,0.085970938,0.022614844,0.280074281
1.784,-0.000314958,0.016596804687499998,0.085970531,0.022614777,0.280075281
1.788,-0.000314791,0.016596033,0.085970602,0.022614912,0.280074969
1.792,-0.000314724,0.016595934,0.085970469,0.022614609,0.280074906
1.796,-0.000314858,0.016595598,0.085969523,0.02261451,0.280075188
1.8,-0.000314221,0.016595564,0.085969695,0.02261424,0.28007537499999996
1.804,-0.000313852,0.016596303,0.085970469,0.022613738,0.280075563
1.808,-0.000313148,0.016597374999999998,0.085970938,0.022613435546874998,0.280076125
1.812,-0.00031345,0.016597711,0.085972078,0.022614676,0.280076125
1.816,-0.000316903,0.016599855,0.085975125,0.022618498046874998,0.280073375
1.82,-0.000316065,0.01660123,0.085975727,0.022619672,0.28007359374999996
1.824,-0.000315864,0.016601902,0.08597643,0.022620377,0.28007359374999996
1.828,-0.000316802,0.016600861,0.085977305,0.02262098,0.280073125
1.832,-0.000318646,0.016597810546874998,0.085977141,0.022621181640624998,0.280072281
1.836,-0.000318579,0.01659657,0.085976234,0.022620107,0.280072219
1.84,-0.000316702,0.016596637,0.085974555,0.022619438,0.280073375
1.844,-0.000314321,0.016594861,0.085973313,0.022619638671874998,0.28007506249999997
1.848,-0.00031288,0.016593084,0.085972508,0.022618969,0.280077469
1.852,-0.000317238,0.016593453124999998,0.085974188,0.022621684,0.280074281
1.856,-0.000317641,0.016594861,0.085976133,0.022623527343749998,0.280072969
1.86,-0.000317205,0.016596470703124998,0.08597757,0.0226245,0.280072875
1.864,-0.000317406,0.016597476562499998,0.085977711,0.022624969,0.280072719
1.868,-0.000317406,0.016596604,0.085977844,0.0226244,0.28007321874999996
1.872,-0.000317741,0.016596873,0.085976805,0.022623193,0.280073281
1.876,-0.000316467,0.016596939,0.085974992,0.022622287,0.28007381249999996
1.88,-0.000315897,0.016594324218749998,0.08597432,0.022622957031249998,0.280073906
1.884,-0.000317574,0.016593955,0.085975461,0.022624434,0.28007284374999997
1.888,-0.000317808,0.016593922,0.0859765,0.022625707031249997,0.280072531
1.892,-0.000317808,0.016594057,0.085977305,0.02262507,0.280072719
1.896,-0.000319384,0.016595029296874998,0.08597757,0.022624031,0.280071688
1.9,-0.000320591,0.01659352,0.085976734,0.022623226562499998,0.280070656
1.904,-0.000319418,0.016591408203124998,0.085974891,0.022622053,0.28007187499999997
1.908,-0.000317238,0.016589195,0.085973016,0.022620611328124998,0.280073906
1.912,-0.000321798,0.016589295,0.085973484,0.022621617,0.2800705
1.916,-0.000322267,0.016590133,0.085973719,0.022621113,0.280069781
1.92,-0.000320557,0.016589094,0.085972977,0.022621113,0.280070969
1.924,-0.000319485,0.016587518,0.085972375,0.022621383,0.280071594
1.928,-0.000319619,0.016587016,0.085972508,0.022621885,0.28007187499999997
1.932,-0.000321329,0.016587887,0.085974453,0.022622857,0.280070906
1.936,-0.00032334,0.016588055,0.085976102,0.022624031,0.28006943749999996
1.94,-0.000324413,0.016587586,0.085976367,0.022625406,0.28006831249999997
1.944,-0.000324748,0.016587418,0.085976602,0.022626377,0.280067813
1.948,-0.000324313,0.016586445,0.085976734,0.022626377,0.28006846874999997
1.952,-0.000324078,0.016586143,0.0859765,0.02262507,0.280069094
1.956,-0.000323441,0.016585707,0.085975125,0.022624199,0.280070063
1.96,-0.000322703,0.016586076,0.085974555,0.022624969,0.280070531
1.964,-0.000321496,0.016584568,0.085973953,0.022624768,0.280071531
1.968,-0.00032277,0.016582725,0.085974586,0.022626445,0.280071594
1.972,-0.000324547,0.016582355,0.085975461,0.022626881,0.280070781
1.976,-0.000325151,0.016581551,0.085975328,0.022626746,0.28006987499999997
1.98,-0.000326324,0.016581885,0.085974891,0.022626479,0.280068938
1.984,-0.000326425,0.016582455,0.085974625,0.022626377,0.28006868749999997
1.988,-0.000325251,0.016582959,0.085975727,0.022626479,0.280069938
1.992,-0.00032334,0.016583091796874998,0.085975125,0.022625238281249998,0.28007181249999996
1.996,-0.000328001,0.016581852,0.085975664,0.02262601,0.280067906
2,-0.000329543,0.016582052734374998,0.085976633,0.022627451,0.28006668749999997
2.004,-0.000330716,0.016582557,0.085978039,0.022628859374999998,0.280065563
2.008,-0.00032961,0.016581383,0.085978211,0.022628322,0.280066656
2.012,-0.000329141,0.016579773,0.085976133,0.022625841796874997,0.280067344
2.016,-0.000330146,0.016578834,0.085975461,0.022626076,0.280067156
2.02,-0.000331689,0.016578029296874998,0.085974859,0.022626311,0.28006575
2.024,-0.000332024,0.016577158203124998,0.085974992,0.022625808593749998,0.280065156
2.028,-0.000331856,0.016577494,0.085976164,0.022626109374999998,0.280065469
2.032,-0.000331085,0.016576756,0.08597543,0.022624164,0.280067
2.036,-0.000332627,0.016576521,0.085975055,0.022623695312499997,0.28006571874999997
2.04,-0.00033474,0.016577023437499998,0.0859765,0.022625004,0.280063813
2.044,-0.00033474,0.016577762,0.085976805,0.022624734,0.280064
2.048,-0.000334807,0.016576957,0.085976398,0.022624064,0.28006468749999996
2.052,-0.00033531,0.016577057,0.085977141,0.022624869,0.280064563
2.056,-0.000335377,0.01657699,0.085978141,0.022625908,0.280064563
2.06,-0.000335477,0.016576789,0.085979688,0.022627818,0.280064563
2.064,-0.000333164,0.016575783,0.085980359,0.022628724609374998,0.280066531
2.068,-0.000334773,0.016575683593749998,0.085981695,0.022630836,0.280065906
2.072,-0.000338662,0.016576924,0.085984281,0.022633318359374998,0.28006253124999997
2.076,-0.000338696,0.016576723,0.085985047,0.02263409,0.280062656
2.08,-0.000337355,0.016575717,0.085984344,0.022633451,0.280063656
2.084,-0.000336919,0.016576855,0.085984047,0.022632312499999998,0.280064063
2.088,-0.000334974,0.016576855,0.085983141,0.022630166015624998,0.280065625
2.092,-0.000333767,0.016575314,0.085982164,0.022629763671874997,0.280066969
2.096,-0.000335008,0.01657632,0.085982969,0.022630871093749998,0.280065625
2.1,-0.000335209,0.016577359,0.085983539,0.022631676,0.280065531
2.104,-0.000334807,0.016577191,0.085983812,0.022632279,0.28006624999999996
2.108,-0.000335913,0.01657642,0.085985117,0.022632312499999998,0.280066063
2.112,-0.000336885,0.016574643,0.085985953,0.022632916015624997,0.28006571874999997
2.116,-0.000337154,0.016573504,0.085986625,0.022634391,0.28006565624999996
2.12,-0.000338394,0.016573638671874998,0.085987063,0.022636804687499998,0.280064844
2.124,-0.000338629,0.016574207,0.085987969,0.022637643,0.280064375
2.128,-0.000338227,0.016574711,0.085988773,0.022637509765624998,0.280065
2.132,-0.000339199,0.016574342,0.085988703,0.022636135,0.280064719
2.136,-0.000340775,0.016574477,0.085988734,0.022635162,0.280063219
2.14,-0.000338998,0.016574107421874998,0.08598743,0.022633652343749998,0.280064344
2.144,-0.000336651,0.016571828,0.085985656,0.022631676,0.28006668749999997
2.148,-0.000337254,0.016568844,0.085984312,0.022629730468749998,0.280066625
2.152,-0.000338025,0.016566965,0.085983141,0.022626377,0.280066531
2.156,-0.000337556,0.016566631,0.085981969,0.022624130859374997,0.280067188
2.16,-0.00034235,0.016566563,0.085982703,0.022625673828124998,0.280063219
2.164,-0.000342887,0.016565793,0.085984383,0.022626881,0.280062781
2.168,-0.000342116,0.016565256,0.085985047,0.022628724609374998,0.280063969
2.172,-0.000343055,0.016562809,0.085984617,0.022630199218749997,0.28006349999999997
2.176,-0.000343625,0.016561266,0.085984984,0.022631574,0.28006312499999997
2.18,-0.000344194,0.016560764,0.085986055,0.022633117,0.280062438
2.184,-0.000344027,0.016560394531249998,0.085985953,0.022633688,0.280062781
2.188,-0.000342518,0.016560428,0.085986055,0.022632916015624997,0.280064125
2.192,-0.000342015,0.01655959,0.085985047,0.022631406,0.280064875
2.196,-0.000342753,0.01656016,0.085984344,0.0226301,0.28006393749999997
2.2,-0.000342317,0.016559656,0.085984547,0.022629496,0.28006393749999997
2.204,-0.000340741,0.016559253906249998,0.08598468,0.022628557,0.28006512499999997
2.208,-0.000340138,0.016559053,0.08598468,0.022627484,0.28006631249999997
2.212,-0.000341848,0.016559656,0.085985516,0.022627583984374998,0.28006512499999997
2.216,-0.000342451,0.016559154,0.085986055,0.022628088,0.280063906
2.22,-0.00034235,0.016559488,0.085986555,0.022629763671874997,0.280063531
2.224,-0.000342049,0.016559656,0.085987297,0.022630769531249997,0.28006371874999997
2.228,-0.000339333,0.016559253906249998,0.085987125,0.022630938,0.280066406
2.232,-0.000344161,0.016557311,0.08598857,0.022633553,0.280063531
2.236,-0.000347212,0.016556404,0.085989539,0.022634592,0.28006112499999997
2.24,-0.000345301,0.016556975,0.0859885,0.022632982,0.280062375
2.244,-0.000343859,0.01655674,0.085988602,0.022631977,0.280064156
2.248,-0.000342585,0.016555800781249998,0.085988773,0.022632078,0.280065625
2.252,-0.000340104,0.016554494,0.085987867,0.022631273,0.280067969
2.256,-0.000342015,0.016554359,0.085987328,0.02263201,0.280066781
2.26,-0.000341445,0.016555230468749998,0.085986227,0.022632312499999998,0.280066344
2.264,-0.000338998,0.016554963,0.08598525,0.022631842,0.2800685
2.268,-0.000338763,0.016554627,0.085985586,0.022632279,0.280069156
2.272,-0.000340272,0.016553855,0.085985922,0.022632781249999998,0.280068563
2.276,-0.00034111,0.016551878906249998,0.085985789,0.022632848,0.280068156
2.28,-0.000342853,0.016550603515624998,0.085986227,0.022634055,0.28006675
2.284,-0.000344362,0.016551342,0.08598743,0.022635162,0.280065344
2.288,-0.000344563,0.016552179687499998,0.085988969,0.022635766,0.280065156
2.292,-0.000344798,0.016552047,0.085990078,0.022635297,0.280065313
2.296,-0.000344966,0.016550738281249998,0.085989305,0.022635162,0.280064813
2.3,-0.000344094,0.016549162109374998,0.08598807,0.022635396,0.280065344
2.304,-0.000344396,0.016549432,0.085988367,0.022636033,0.28006506249999996
2.308,-0.000344731,0.01654933,0.085989039,0.022635195,0.28006506249999996
2.312,-0.000345435,0.016548895,0.085989172,0.022634189,0.280064813
2.316,-0.000344362,0.016548693359374998,0.085988102,0.022633216796874998,0.28006565624999996
2.32,-0.000343222,0.016549699,0.085988133,0.022633955,0.280066125
2.324,-0.000341244,0.016549432,0.085988164,0.022633351562499997,0.28006809374999997
2.328,-0.000339568,0.016549833984374998,0.085989039,0.022633285,0.28006987499999997
2.332,-0.000336885,0.016549263671874998,0.085988641,0.022632514,0.280072094
2.336,-0.000340272,0.01654648,0.085987227,0.022633486,0.280070594
2.34,-0.000343356,0.016545039,0.085986859,0.022634525,0.28006831249999997
2.344,-0.000343658,0.016544133,0.085987125,0.02263409,0.28006803124999996
2.348,-0.000343021,0.016543798828124998,0.085988438,0.022634424,0.280069094
2.352,-0.000343993,0.016542625,0.085989273,0.02263543,0.28006875
2.356,-0.000345401,0.016541451,0.085989172,0.022635631,0.28006743749999996
2.36,-0.000345301,0.016541586,0.085989477,0.022635865,0.280067344
2.364,-0.000344396,0.016541887,0.085990648,0.022636303,0.280068125
2.368,-0.000342719,0.016541955,0.085990813,0.022635228515624998,0.280069531
2.372,-0.000341445,0.016540949,0.085990148,0.022634424,0.280070375
2.376,-0.000340607,0.01653877,0.085989273,0.022633854,0.28007084374999996
2.38,-0.00034178,0.016538098,0.085989945,0.022635699,0.28006943749999996
2.384,-0.00034054,0.016538568,0.085990617,0.022636469,0.280069813
2.388,-0.00033826,0.01653726,0.085990047,0.022635631,0.280072
2.392,-0.000337657,0.016535583984374998,0.085989742,0.022634291,0.280072906
2.396,-0.000337891,0.016536121093749998,0.085989539,0.022633753906249998,0.280072375
2.4,-0.0003394,0.016537127,0.085990648,0.022634826,0.28007084374999996
2.404,-0.000339098,0.016537998,0.085991219,0.022635195,0.28007062499999996
2.408,-0.000338797,0.016537529,0.085992563,0.022634693,0.280071375
2.412,-0.00034054,0.016537595703124998,0.085993734,0.022634961,0.28007024999999997
2.416,-0.000341043,0.016538133,0.085993734,0.022635699,0.28006928124999997
2.42,-0.000339501,0.016537092,0.08599407,0.022636804687499998,0.280070563
2.424,-0.000340205,0.016536824,0.085993969,0.022637543,0.280070375
2.428,-0.000341244,0.016536389,0.085993664,0.022638246093749998,0.280069938
2.432,-0.000341009,0.016534512,0.085992758,0.022638012,0.280070875
2.436,-0.000342082,0.0165326,0.085992125,0.022638414062499997,0.280070188
2.44,-0.000342619,0.016531527343749998,0.085992328,0.022638514,0.280069531
2.444,-0.000343692,0.016531594,0.085993563,0.022638213,0.28006884374999996
2.448,-0.000343189,0.016530924,0.085994367,0.022636939453124998,0.280069469
2.452,-0.000341848,0.016530219,0.085994,0.022635228515624998,0.280070656
2.456,-0.000343356,0.016529717,0.085994336,0.022635363281249998,0.280069594
2.46,-0.00034463,0.01652918,0.08599568,0.022637374999999998,0.280068531
2.464,-0.00034463,0.016528476562499998,0.085996078,0.02263848,0.2800685
2.468,-0.000343759,0.016529046874999998,0.085995445,0.022637777,0.28006928124999997
2.472,-0.000342786,0.016530455,0.085994641,0.022637475,0.28007003124999996
2.476,-0.000342317,0.016531225,0.085994938,0.022638549,0.280070188
2.48,-0.000341445,0.016531158,0.085995172,0.022637475,0.280070906
2.484,-0.000340607,0.016530689,0.085994602,0.022636303,0.280071531
2.488,-0.00034111,0.016529515624999998,0.085994234,0.022635798828124998,0.280071156
2.492,-0.000341646,0.016527906,0.085994203,0.022635967,0.280071156
2.496,-0.000342585,0.016527,0.085994672,0.022636939453124998,0.280070594
2.5,-0.000343323,0.016527,0.085995406,0.022638783,0.280070125
2.504,-0.000344228,0.016526699,0.085996078,0.022640726562499998,0.280069625
2.508,-0.000343893,0.016526432,0.085996719,0.022641566406249997,0.28007024999999997
2.512,-0.00034567,0.016526598,0.085998531,0.022642437499999998,0.280069156
2.516,-0.000347883,0.016527336,0.086000273,0.022643209,0.280066875
2.52,-0.000346743,0.016526766,0.086000273,0.022643341796874997,0.280067125
2.524,-0.000345368,0.016527035156249998,0.085999531,0.022641834,0.28006831249999997
2.528,-0.000345301,0.016525894531249998,0.085998625,0.022640324,0.28006831249999997
2.532,-0.00034624,0.016525559,0.085998125,0.02263875,0.280067469
2.536,-0.000343658,0.016525057,0.085996984,0.022637141,0.280069
2.54,-0.000339936,0.016524486,0.085995039,0.022635933593749998,0.280071781
2.544,-0.000337824,0.016524688,0.085995039,0.022636369140624998,0.280073781
2.548,-0.000334337,0.016523615,0.085994203,0.022635631,0.280076875
2.552,-0.000336751,0.016522441406249998,0.085995172,0.022636705,0.280075156
2.556,-0.000338864,0.016522676,0.085996047,0.022637777,0.280073125
2.56,-0.000338294,0.01652291,0.085996016,0.022637543,0.280073281
2.564,-0.000338092,0.016522943,0.085996078,0.022637979,0.280073188
2.568,-0.000336718,0.016523547,0.085996117,0.022637408,0.280074375
2.572,-0.000335477,0.016523514,0.085995742,0.022635228515624998,0.28007543749999997
2.576,-0.000333801,0.016523414,0.085994938,0.022633955,0.28007640624999997
2.58,-0.000333399,0.016522676,0.085995641,0.022634759765624998,0.280076875
2.584,-0.000333164,0.016521535,0.085996078,0.022636066,0.280076813
2.588,-0.000332963,0.016520429687499998,0.085995578,0.022635865,0.280077344
2.592,-0.000332728,0.016519256,0.085994836,0.022635195,0.280078156
2.596,-0.000334505,0.01651758,0.085995641,0.022636234374999998,0.280076906
2.6,-0.00033598,0.016516943359374998,0.085997117,0.022637744,0.280075469
2.604,-0.000337858,0.016516842,0.085998359,0.022637810546874998,0.28007403124999997
2.608,-0.000339635,0.016516742,0.085999031,0.022638648,0.280072875
2.612,-0.000340272,0.016517949218749998,0.085999938,0.022639822265624998,0.280072219
2.616,-0.00033883,0.016518217,0.085999531,0.022639855468749998,0.280073281
2.62,-0.000335746,0.016517814453124998,0.085998531,0.022638648,0.28007537499999996
2.624,-0.000333566,0.01651758,0.085998094,0.022637509765624998,0.280077281
2.628,-0.000333566,0.016516673828124998,0.085998195,0.022637273437499997,0.2800775
2.632,-0.000333935,0.016516473,0.085998055,0.022637475,0.280077469
2.636,-0.000334036,0.016516506,0.085997758,0.022636402,0.280077781
2.64,-0.000336181,0.0165155,0.085997922,0.022636503906249997,0.280076
2.644,-0.000338696,0.016515133,0.085999633,0.022637643,0.280074563
2.648,-0.000337891,0.0165154,0.086000375,0.022638916,0.280075281
2.652,-0.000335578,0.016516172,0.086000906,0.022640561,0.280077313
2.656,-0.000334807,0.016515467,0.085999898,0.022639720703124998,0.280078531
2.66,-0.000335343,0.016512986,0.085998328,0.022637240234374998,0.280077938
2.664,-0.000333332,0.016509969,0.085996688,0.022635732,0.28007925
2.668,-0.000333868,0.016509365,0.085996953,0.022635699,0.280078938
2.672,-0.000334337,0.016510638671874998,0.085997586,0.022635631,0.280078813
2.676,-0.00033417,0.016510674,0.085997586,0.022634826,0.280078906
2.68,-0.000334404,0.016509668,0.085997055,0.022636,0.280078531
2.684,-0.00033484,0.01650923,0.085996688,0.022636436,0.28007862499999997
2.688,-0.000334907,0.016510908,0.085996883,0.022634961,0.280079125
2.692,-0.000334606,0.016510304687499998,0.085996547,0.02263325,0.28008
2.696,-0.000334237,0.016509164062499998,0.085994938,0.022632279,0.280080594
2.7,-0.000333264,0.016508896,0.085993969,0.022631475,0.280081094
2.704,-0.000334505,0.016509298828124998,0.08599457,0.02263201,0.280080219
2.708,-0.000334471,0.016509029296874998,0.085995273,0.022632547,0.28008025
2.712,-0.000331018,0.016508963,0.085994508,0.02263191,0.280083219
2.716,-0.00033484,0.0165095,0.085994938,0.022633955,0.28008025
2.72,-0.000334539,0.016509098,0.08599618,0.022635865,0.280079906
2.724,-0.000333801,0.016509701,0.085997117,0.022636637,0.280080906
2.728,-0.000334069,0.016509768,0.085998125,0.022637643,0.280081438
2.732,-0.000334673,0.016507957,0.085997922,0.022637408,0.280081313
2.736,-0.000335209,0.016508023437499998,0.085998492,0.022637945312499998,0.280080906
2.74,-0.00033598,0.016508963,0.085999602,0.022639354,0.280080438
2.744,-0.000335913,0.016509801,0.085999531,0.022638549,0.28008034374999996
2.748,-0.000336483,0.016509869140624998,0.085999703,0.022637107,0.280080094
2.752,-0.000336248,0.016509064,0.085998961,0.022634324218749998,0.28008078124999997
2.756,-0.000336584,0.016508593749999998,0.085997758,0.022632781249999998,0.280080375
2.76,-0.00033769,0.016508426,0.085997758,0.022633586,0.280079313
2.764,-0.000337522,0.016508225,0.085997289,0.02263315,0.280079406
2.768,-0.000334673,0.016507587890624998,0.085997492,0.022633418,0.280081563
2.772,-0.000332963,0.016507086,0.085997656,0.022634592,0.280083563
2.776,-0.000334505,0.016507053,0.085998359,0.022636234374999998,0.2800825
2.78,-0.000333901,0.016505945,0.085998055,0.022636201,0.280082438
2.784,-0.000333667,0.016503999999999998,0.085997555,0.022635865,0.280082844
2.788,-0.00033417,0.016504134765624998,0.085998828,0.022636939453124998,0.2800825
2.792,-0.000334337,0.016504471,0.086000141,0.022637877,0.280082063
2.796,-0.000333264,0.016504201,0.085999703,0.022637174,0.280083313
2.8,-0.000337053,0.016504438,0.085999703,0.022638045,0.28008075
2.804,-0.000334203,0.016503999999999998,0.085998797,0.022636771,0.280082656
2.808,-0.000332661,0.016503834,0.085997758,0.022634357421874998,0.28008418749999997
2.812,-0.000331555,0.016502928,0.085997727,0.022632882812499998,0.28008553124999996
2.816,-0.000329744,0.016502727,0.085997453,0.022632445,0.280086875
2.82,-0.000328269,0.016503934,0.085996883,0.02263191,0.28008753124999997
2.824,-0.000327867,0.016503195,0.085997086,0.022632111,0.280087844
2.828,-0.0003279,0.016503230468749998,0.085996719,0.022631273,0.280088438
2.832,-0.000327297,0.016502089843749998,0.085995977,0.022630367,0.280089
2.836,-0.000327799,0.016501453,0.085995211,0.022629998,0.28008849999999996
2.84,-0.000327565,0.016502391,0.085996445,0.022631406,0.280088469
2.844,-0.000326928,0.016501922,0.08599675,0.022631574,0.280088969
2.848,-0.000328302,0.016499877,0.085995914,0.022630971,0.280088094
2.852,-0.000329275,0.016499507812499998,0.085996016,0.022631742187499998,0.280087281
2.856,-0.000326525,0.016498133,0.085996516,0.022632781249999998,0.280088969
2.86,-0.000324078,0.016496424,0.08599675,0.02263258,0.280090469
2.864,-0.000322334,0.016497162109374998,0.085996648,0.022631676,0.280091781
2.868,-0.000322435,0.016497832,0.085997789,0.022633084,0.280091969
2.872,-0.000322167,0.016496121,0.085998859,0.022634324218749998,0.280092563
2.876,-0.000322267,0.016496490234374998,0.085999531,0.022634792968749998,0.28009249999999997
2.88,-0.000321496,0.016496559,0.085999195,0.022634525,0.280092969
2.884,-0.000320725,0.016497697,0.085999898,0.022634927734374997,0.280093563
2.888,-0.00032039,0.016497396,0.086000609,0.022634424,0.280094344
2.892,-0.000321764,0.016495553,0.086001609,0.022634457,0.2800935
2.896,-0.000320725,0.016494547,0.086001039,0.022633921874999997,0.28009428124999997
2.9,-0.000319753,0.016494009765624998,0.086000945,0.022634189,0.28009471874999997
2.904,-0.000318311,0.016494379,0.086001109,0.022634859,0.280095719
2.908,-0.000317272,0.016494713,0.086000609,0.022634525,0.280096344
2.912,-0.000318009,0.016494009765624998,0.086000438,0.022634592,0.280096625
2.916,-0.000318345,0.01649307,0.086001078,0.022635261718749997,0.280096469
2.92,-0.000317574,0.016492938,0.086001844,0.022636871,0.280097188
2.924,-0.000317976,0.016492098,0.086002117,0.02263818,0.280096719
2.928,-0.000318579,0.016490689,0.086002648,0.022638213,0.280096688
2.932,-0.000319451,0.016489818,0.086002984,0.022637777,0.28009625
2.936,-0.000318076,0.016490322,0.086001883,0.022637207,0.280097594
2.94,-0.000316769,0.016490523437499998,0.086000977,0.022636637,0.28009909374999997
2.944,-0.000319719,0.016489818,0.086001508,0.022637711,0.280096844
2.948,-0.000316266,0.016487773,0.085999766,0.022635463,0.280099906
2.952,-0.000315595,0.016485762,0.085998094,0.022633553,0.280100844
2.956,-0.000315528,0.016484488,0.08599725,0.022632848,0.280100688
2.96,-0.000315294,0.016482711,0.085997352,0.022632078,0.280100531
2.964,-0.00031469,0.016482375,0.085998195,0.022632177734374998,0.280101375
2.968,-0.000315461,0.016483381,0.085998695,0.022632848,0.280101094
2.972,-0.000316702,0.016483984,0.085999336,0.022634525,0.28009999999999996
2.976,-0.000316367,0.016485059,0.085999031,0.022634826,0.280099219
2.98,-0.000313349,0.016485326,0.085999031,0.022634826,0.28010087499999997
2.984,-0.000309728,0.016484555,0.085999102,0.022634457,0.280103813
2.988,-0.000308521,0.016485224609374998,0.085999164,0.02263409,0.280105531
2.992,-0.000309795,0.016484822,0.085999266,0.022633619,0.280104906
2.996,-0.000308018,0.01648375,0.085998898,0.02263258,0.280106094
3,-0.000309963,0.016484119,0.08599943,0.022633688,0.280104875
3.004,-0.000310533,0.016484789062499998,0.086000141,0.022635531,0.280104688
3.008,-0.000309594,0.016484218749999998,0.086000641,0.022635129,0.280105656
3.012,-0.000308353,0.016482777343749998,0.085999367,0.022632781249999998,0.28010681249999997
3.016,-0.000308622,0.016482107,0.085999063,0.022633084,0.280106531
3.02,-0.00030889,0.016482477,0.085999969,0.022634291,0.280106406
3.024,-0.000309125,0.016483549,0.086000539,0.022634222656249998,0.280106406
3.028,-0.000310265,0.01648365,0.086000906,0.022633753906249998,0.280105469
3.032,-0.0003106,0.016481639,0.086000703,0.022632814,0.28010518749999996
3.036,-0.000310332,0.016478621,0.086,0.022632715,0.28010540624999997
3.04,-0.000308521,0.016478018,0.085998727,0.022631475,0.28010681249999997
3.044,-0.000305872,0.016478553,0.085998492,0.022631709,0.280109063
3.048,-0.000308421,0.016476943,0.085999633,0.022634324218749998,0.28010681249999997
3.052,-0.000309359,0.016474631,0.08599957,0.022635261718749997,0.280106406
3.056,-0.000310231,0.016473391,0.085999703,0.022636436,0.280105906
3.06,-0.000309259,0.016472316,0.085999133,0.022635900390624998,0.280106656
3.064,-0.000309862,0.016470574,0.085999,0.022635798828124998,0.28010621874999997
3.068,-0.000309829,0.016469634765624998,0.085999102,0.022636267578124997,0.280105813
3.072,-0.00030899,0.016468965,0.085998328,0.022635027,0.28010718749999997
3.076,-0.000309963,0.016468294921874998,0.085998023,0.022635766,0.280106344
3.08,-0.000312276,0.016466416,0.085997523,0.022636604,0.280104625
3.084,-0.000311639,0.016465881,0.085997727,0.022637342,0.28010503124999997
3.088,-0.000311337,0.016464673828124998,0.085997859,0.022638816406249998,0.280105594
3.092,-0.00031117,0.016463869,0.085997352,0.022638113,0.280106094
3.096,-0.000310667,0.016463130859374998,0.085997422,0.022637543,0.280106719
3.1,-0.000311907,0.016462326,0.085997758,0.022637475,0.28010556249999996
3.104,-0.000315394,0.016461419921874998,0.085999602,0.022639152,0.280102375
3.108,-0.000313718,0.016460615,0.085999297,0.022637609,0.280104094
3.112,-0.000312444,0.016460984374999998,0.085998766,0.022635766,0.280105094
3.116,-0.000311203,0.01646075,0.085998195,0.022633553,0.28010621874999997
3.12,-0.000310432,0.016459408203124998,0.085996852,0.022632982,0.28010674999999996
3.124,-0.000308722,0.016458369140624998,0.085996484,0.022634658203124998,0.280108094
3.128,-0.000313416,0.016456996,0.085998297,0.022637744,0.28010496874999996
3.132,-0.000316299,0.016457297,0.086000141,0.022638714843749998,0.280103063
3.136,-0.00031459,0.016456861,0.085999969,0.022638582,0.280104469
3.14,-0.000312209,0.016456225,0.085998125,0.022637543,0.280106906
3.144,-0.000312243,0.016455921874999998,0.085997625,0.02263657,0.280106844
3.148,-0.00031355,0.01645515,0.085997789,0.022635766,0.280105594
3.152,-0.000313885,0.016454682,0.085997727,0.022634859,0.28010503124999997
3.156,-0.000313047,0.016454816,0.085997086,0.022634792968749998,0.28010540624999997
3.16,-0.00031184,0.01645542,0.085996922,0.022636066,0.280105969
3.164,-0.00031127,0.016455387,0.085997625,0.022637543,0.28010637499999996
3.168,-0.000311606,0.016454213,0.085998664,0.02263875,0.280106531
3.172,-0.000311438,0.016452805,0.085999031,0.022639688,0.28010696874999996
3.176,-0.000311103,0.016451529,0.085998258,0.022640057,0.280107219
3.18,-0.000307918,0.016450523,0.085996617,0.022638984,0.280109094
3.184,-0.000310298,0.016450859374999998,0.08599675,0.022639386718749998,0.280107875
3.188,-0.000311337,0.016451529,0.085997016,0.022638682,0.280107281
3.192,-0.000309862,0.016451664,0.085996484,0.022636939453124998,0.280108188
3.196,-0.000306576,0.016450961,0.085994672,0.022635631,0.280110281
3.2,-0.000302285,0.01644915,0.085992594,0.022633318359374998,0.28011375
3.204,-0.000304665,0.016448847656249998,0.085993734,0.022633652343749998,0.280112406
3.208,-0.000303492,0.01644858,0.085993094,0.022632916015624997,0.280113906
3.212,-0.000303794,0.016446937499999998,0.085991789,0.022633016,0.280113625
3.216,-0.000302251,0.016444389,0.085991422,0.02263325,0.280114719
3.22,-0.000302989,0.016443449,0.085992289,0.022634457,0.280114063
3.224,-0.000303391,0.016443986,0.085992695,0.022635129,0.280113438
3.228,-0.000304632,0.016442041,0.085993664,0.022635865,0.280112563
3.232,-0.000304665,0.016441874999999998,0.085993937,0.022635933593749998,0.280112438
3.236,-0.000305504,0.016442377,0.085994336,0.022636335937499998,0.28011156249999997
3.24,-0.000306409,0.016442545,0.085995445,0.022636267578124997,0.280110813
3.244,-0.000306107,0.016442311,0.085995742,0.022636369140624998,0.28011125
3.248,-0.000303727,0.016442242,0.085994641,0.022635699,0.28011375
3.252,-0.000304766,0.016441404,0.085993266,0.022634592,0.280113156
3.256,-0.000302184,0.016439795,0.085991688,0.022632848,0.280114844
3.26,-0.000299536,0.016438387,0.085990008,0.022630836,0.28011712499999997
3.264,-0.000295781,0.016437516,0.085988875,0.022629563,0.280120125
3.268,-0.000299804,0.016437047,0.085989875,0.022631037,0.280117156
3.272,-0.000301648,0.016438488,0.085991148,0.022632244,0.280115531
3.276,-0.000301983,0.016439292968749998,0.085991758,0.022633955,0.280115156
3.28,-0.000299804,0.016438755859374998,0.085992227,0.022635766,0.28011712499999997
3.284,-0.000298932,0.016436945,0.085993766,0.022637711,0.280118188
3.288,-0.000299368,0.016435705078124998,0.085994703,0.022637843749999997,0.280118406
3.292,-0.000298932,0.016434063,0.085994836,0.022637609,0.28011975
3.296,-0.000299837,0.016433191,0.085993328,0.022636871,0.280119219
3.3,-0.000299402,0.016433426,0.085991656,0.022634424,0.280119375
3.304,-0.000299469,0.016433996,0.085990813,0.022632613,0.280119594
3.308,-0.000299804,0.016433156,0.085989141,0.022631171874999998,0.280119813
3.312,-0.000300843,0.016431078124999998,0.085987969,0.022629664,0.280118719
3.316,-0.00030148,0.016430375,0.085986359,0.022627685546874998,0.28011771874999997
3.32,-0.00030195,0.016429234,0.085984711,0.022626377,0.280116875
3.324,-0.000303995,0.016426619140624998,0.085984008,0.022626142578124998,0.28011525
3.328,-0.000306107,0.016425211,0.085982602,0.0226245,0.280113844
3.332,-0.000308353,0.016424541,0.08598193,0.022623629,0.280112281
3.336,-0.00030889,0.0164231,0.085980992,0.022622521484374998,0.280111438
3.34,-0.000309695,0.016422629,0.085981195,0.022623461,0.280110656
3.344,-0.000308789,0.016421959,0.085981164,0.022624031,0.280111438
3.348,-0.000313114,0.016421623,0.085982672,0.022625439,0.280108906
3.352,-0.000314724,0.016422059,0.085983945,0.022626545,0.28010825
3.356,-0.000313383,0.016421959,0.085984414,0.022625103515624998,0.280109219
3.36,-0.000309024,0.016422328,0.085982906,0.022622287,0.28011171874999996
3.364,-0.000308655,0.01642092,0.085982203,0.022621383,0.28011259374999997
3.368,-0.000310365,0.016420887,0.085984344,0.022621986,0.280111531
3.372,-0.000309225,0.016421992187499998,0.085985187,0.022620879,0.280113281
3.376,-0.000307348,0.016422361,0.085986187,0.022620744,0.280114719
3.38,-0.000305638,0.0164231,0.08598632,0.022620678,0.280115469
3.384,-0.000305504,0.016422965,0.085986086,0.022620377,0.280115469
3.388,-0.000305571,0.0164234,0.085986023,0.022620377,0.280116
3.392,-0.000305839,0.016422361,0.085986492,0.022621014,0.280116656
3.396,-0.000308052,0.01642065,0.085987734,0.022622891,0.28011525
3.4,-0.000307884,0.01642065,0.085989242,0.022624701171874997,0.280115
3.404,-0.000306811,0.016421959,0.085989875,0.022624635,0.280115688
3.408,-0.000305571,0.016421992187499998,0.085990148,0.022623395,0.280117
3.412,-0.000305202,0.016421455078124998,0.085990414,0.022623059,0.28011775
3.416,-0.000304163,0.016421053,0.085990883,0.022622689,0.28011846874999996
3.42,-0.000303056,0.01642092,0.085991586,0.022623395,0.280119438
3.424,-0.000302553,0.016420115234374998,0.085991758,0.022622689,0.28012031249999997
3.428,-0.000301816,0.016418941,0.085992359,0.022622554687499997,0.280120813
3.432,-0.000299569,0.016418674,0.085992563,0.022622422,0.280122219
3.436,-0.000299368,0.016418473,0.085992664,0.02262232,0.2801225
3.44,-0.000303961,0.01641968,0.085993602,0.02262383,0.280119094
3.444,-0.000302888,0.016419344,0.085993836,0.022625305,0.280120125
3.448,-0.000301916,0.016419242,0.085994773,0.022626947,0.280121406
3.452,-0.000299402,0.016420082031249998,0.085994875,0.022626311,0.280123469
3.456,-0.000298094,0.016419041,0.085995109,0.022625841796874997,0.28012468749999997
3.46,-0.000297256,0.016417365,0.085994672,0.022625773,0.280125
3.464,-0.000297859,0.016418137,0.085994836,0.022626211,0.28012446874999997
3.468,-0.000296418,0.016418941,0.085996148,0.022625808593749998,0.280125469
3.472,-0.000296552,0.016419076171874998,0.08599675,0.02262507,0.28012575
3.476,-0.000295747,0.016419176,0.085995844,0.022624031,0.280126594
3.48,-0.000295144,0.016418875,0.085995273,0.022623729,0.280127313
3.484,-0.000294674,0.016419041,0.085995844,0.022623695312499997,0.280127844
3.488,-0.000295278,0.016418605,0.085996617,0.022624031,0.28012775
3.492,-0.000296753,0.016417098,0.085997156,0.0226244,0.280127156
3.496,-0.000297491,0.016416996,0.085997352,0.022624199,0.280126438
3.5,-0.000297457,0.016416561,0.085997422,0.022624031,0.28012609374999997
3.504,-0.000298429,0.016416058593749998,0.085997922,0.022624164,0.280125594
3.508,-0.00029967,0.01641599,0.085999336,0.022624768,0.280124813
3.512,-0.000298362,0.016414516,0.085999133,0.022624199,0.2801265
3.516,-0.000303928,0.016413275,0.086000141,0.022625773,0.28012246874999996
3.52,-0.00030148,0.016413576,0.085998563,0.0226245,0.280124188
3.524,-0.000299368,0.016413141,0.085998125,0.022624566406249998,0.280126125
3.528,-0.000296418,0.016413443,0.085997727,0.02262383,0.280128281
3.532,-0.00029853,0.016412738,0.085998594,0.022623998,0.280126656
3.536,-0.00030081,0.016413041015624998,0.085999602,0.022624969,0.28012475
3.54,-0.000299703,0.016413107,0.085999898,0.022626814453124998,0.28012565624999997
3.544,-0.000301279,0.016412873,0.086000273,0.022627718749999998,0.2801245
3.548,-0.00030205,0.016411029,0.086000773,0.022627049,0.280124
3.552,-0.000301749,0.016409588,0.086001781,0.022626779,0.2801245
3.556,-0.000301044,0.016410627,0.086001547,0.022626244140624998,0.280125563
3.56,-0.000301044,0.016410291,0.086001109,0.022626679687499998,0.280125375
3.564,-0.000301111,0.016410291,0.08600118,0.022627685546874998,0.28012525
3.568,-0.000301313,0.016410525,0.08600175,0.022627049,0.280125188
3.572,-0.0002991,0.016409721,0.086000805,0.022624902,0.28012684374999997
3.576,-0.000300441,0.016409219,0.086000234,0.022624130859374997,0.280126438
3.58,-0.000303023,0.016409051,0.086001273,0.022624802734374998,0.280124594
3.584,-0.000302251,0.016408682,0.086001813,0.022625439,0.28012521874999996
3.588,-0.000299938,0.016408213,0.086002047,0.022626545,0.28012706249999997
3.592,-0.000299569,0.016407676,0.086001984,0.022626377,0.28012728124999997
3.596,-0.000298731,0.016408078,0.086001883,0.022625875,0.280127406
3.6,-0.000299536,0.016409285156249998,0.086002648,0.022626947,0.280126594
3.604,-0.000297759,0.016409186,0.086003023,0.022626578124999998,0.28012803124999996
3.608,-0.000297893,0.016407877,0.086004797,0.02262735,0.280128656
3.612,-0.0002992,0.01640848,0.086005969,0.022627249999999998,0.280127688
3.616,-0.000300542,0.016409252,0.086007078,0.022627217,0.280126531
3.62,-0.000302788,0.016409486,0.08600768,0.022629193359374997,0.28012468749999997
3.624,-0.000304632,0.016409721,0.086009422,0.022631574,0.280123406
3.628,-0.000303961,0.016410123,0.086010094,0.02263248,0.280124156
3.632,-0.000302486,0.016408447,0.086008922,0.022631105,0.280125531
3.636,-0.00029977,0.016407708984374998,0.086007242,0.022628926,0.280127
3.64,-0.000300374,0.016407441,0.086007711,0.022628088,0.280126375
3.644,-0.000301782,0.016408849609374998,0.08600875,0.022627718749999998,0.280124781
3.648,-0.000299871,0.016409352,0.086009289,0.022626613,0.2801265
3.652,-0.000299435,0.016408883,0.086009125,0.022625103515624998,0.280127125
3.656,-0.000300206,0.016407408203124998,0.086008992,0.022625406,0.280126781
3.66,-0.000300877,0.016407006,0.086008891,0.022626445,0.280126
3.664,-0.000301145,0.01640791,0.086009992,0.022627484,0.280125344
3.668,-0.000301581,0.016407676,0.086010266,0.022627551,0.28012575
3.672,-0.000299703,0.016406436,0.086009695,0.022625439,0.28012781249999996
3.676,-0.000303056,0.016405061,0.086009758,0.022625875,0.28012543749999996
3.68,-0.000304498,0.016404324,0.08601043,0.022627853515624997,0.280124156
3.684,-0.000303794,0.016403921874999998,0.086011438,0.022628791,0.280124813
3.688,-0.000302687,0.016403820312499998,0.086011203,0.022627082,0.28012603124999996
3.692,-0.000303626,0.016402345703124998,0.086010836,0.022626578124999998,0.280125969
3.696,-0.000302553,0.016401775390624998,0.08601043,0.022626076,0.280126531
3.7,-0.00030262,0.016401238281249998,0.086009422,0.022626076,0.280127031
3.704,-0.000302553,0.016400803,0.086009359,0.022625641,0.280127375
3.708,-0.000300072,0.016399998,0.086008086,0.022623395,0.28012965624999997
3.712,-0.000299435,0.016397818,0.086005398,0.022621383,0.280130344
3.716,-0.000300508,0.016396881,0.086004797,0.022621617,0.280129375
3.72,-0.00030081,0.016397014,0.08600557,0.022622521484374998,0.280128688
3.724,-0.000301044,0.016397316,0.086006711,0.022623158,0.280128656
3.728,-0.00030195,0.016396712890624998,0.086007242,0.02262393,0.28012803124999996
3.732,-0.000301413,0.016395975,0.086006844,0.022625037,0.280129313
3.736,-0.000302754,0.016396175781249998,0.086006977,0.02262601,0.280128875
3.74,-0.000300307,0.016398254,0.086006945,0.022624299,0.28013062499999997
3.744,-0.000300139,0.016397686,0.086006203,0.022623629,0.280131125
3.748,-0.000307113,0.01639802,0.086008852,0.022625338,0.28012587499999997
3.752,-0.000305235,0.016398355,0.086009828,0.022624802734374998,0.28012743749999997
3.756,-0.000305772,0.016397383,0.086010227,0.022625773,0.280127094
3.76,-0.000305805,0.01639859,0.0860105,0.022627451,0.280127094
3.764,-0.000304196,0.016398422,0.086011164,0.022627217,0.28012862499999996
3.768,-0.000305437,0.016397248,0.086010461,0.022627082,0.280128313
3.772,-0.000305235,0.016395104,0.086010195,0.022627652,0.28012899999999996
3.776,-0.000306074,0.016394467,0.086010531,0.022627049,0.280128938
3.78,-0.000306811,0.016395473,0.086011164,0.022626479,0.28012906249999997
3.784,-0.000306476,0.016395975,0.086011438,0.022625707031249997,0.280129344
3.788,-0.000307079,0.01639698,0.086012609,0.022626712890624998,0.280128875
3.792,-0.000306576,0.016396512,0.086012977,0.022626412,0.280129313
3.796,-0.000306074,0.016396479,0.086012609,0.022625305,0.28012959374999996
3.8,-0.000305504,0.016396142578124998,0.086010836,0.02262383,0.280130125
3.804,-0.000305101,0.016396142578124998,0.086010328,0.022622891,0.280130531
3.808,-0.000305302,0.01639735,0.086010969,0.022622521484374998,0.280130813
3.812,-0.000306074,0.016398154,0.086012039,0.022622488,0.280130219
3.816,-0.000309326,0.016399395,0.086013445,0.022623193,0.280127844
3.82,-0.000310197,0.016398691,0.086014383,0.022624199,0.280126813
3.824,-0.00030718,0.016398355,0.086014523,0.022624635,0.280128969
3.828,-0.000305068,0.016397953,0.086014719,0.02262383,0.280130938
3.832,-0.000308018,0.016396277343749998,0.086015461,0.022624434,0.280128875
3.836,-0.000307851,0.016395605468749998,0.086014922,0.022623695312499997,0.280128875
3.84,-0.000310868,0.016395773,0.086015359,0.022624566406249998,0.280126219
3.844,-0.000311438,0.016397617187499998,0.086016227,0.022625305,0.280125375
3.848,-0.000309359,0.01639698,0.086015562,0.022622756,0.280127156
3.852,-0.000309829,0.016395605468749998,0.086015094,0.022620041,0.280127031
3.856,-0.000310097,0.016396443,0.086015562,0.02261927,0.280126531
3.86,-0.0003107,0.016398052734374998,0.086015898,0.022620175781249998,0.28012581249999996
3.864,-0.00031127,0.01639792,0.086016602,0.022621047,0.280125
3.868,-0.000310835,0.01639765,0.086017508,0.022621515624999998,0.28012521874999996
3.872,-0.00031117,0.016396779,0.086017875,0.022622455,0.28012521874999996
3.876,-0.000311941,0.016396041015624998,0.086018547,0.022624232421874998,0.280124313
3.88,-0.00031345,0.016395506,0.086018406,0.022625371,0.28012306249999996
3.884,-0.000313885,0.016396377,0.086018578,0.022625305,0.280122625
3.888,-0.000314288,0.016396611328124998,0.086019078,0.022624164,0.280122375
3.892,-0.000313986,0.016395908,0.086019414,0.022623863,0.280123031
3.896,-0.000311874,0.016394668,0.086018242,0.022623226562499998,0.280124781
3.9,-0.000316937,0.016394969,0.086019852,0.022626176,0.280120719
3.904,-0.000316869,0.016395605468749998,0.086020555,0.022626814453124998,0.280120281
3.908,-0.000316132,0.016394969,0.08601982,0.02262517,0.280120875
3.912,-0.000315629,0.016393963,0.086019445,0.022624299,0.28012112499999997
3.916,-0.000315797,0.016393393,0.086019617,0.022624802734374998,0.280121406
3.92,-0.000316467,0.01639175,0.086020086,0.022625875,0.280121
3.924,-0.000316299,0.016391582,0.086019484,0.022624802734374998,0.280120813
3.928,-0.000315629,0.016392253906249998,0.086019148,0.022623359,0.280121438
3.932,-0.000317842,0.016392789,0.08601975,0.02262383,0.280120125
3.936,-0.000318144,0.016393494,0.086020117,0.02262383,0.28011912499999997
3.94,-0.000316668,0.016391918,0.086020156,0.022624902,0.2801205
3.944,-0.000317808,0.01639108,0.086020859,0.022626613,0.280119813
3.948,-0.000319652,0.01639051,0.086021664,0.02262698,0.28011771874999997
3.952,-0.000319887,0.01638957,0.086021156,0.022625773,0.28011725
3.956,-0.000321161,0.016388297,0.086021391,0.022624701171874997,0.280116125
3.96,-0.00032277,0.016387559,0.086021797,0.022625037,0.280115094
3.964,-0.00032324,0.016387928,0.08602143,0.022625473,0.280115063
3.968,-0.000324178,0.01638699,0.086021594,0.022625037,0.280114125
3.972,-0.00032495,0.016386050781249998,0.086021492,0.022623359,0.280113094
3.976,-0.000324715,0.016384375,0.086020922,0.022622287,0.28011290624999996
3.98,-0.000324246,0.016383569,0.086020055,0.022622422,0.28011231249999996
3.984,-0.000323005,0.016382698,0.086019648,0.022622623,0.280113281
3.988,-0.000326123,0.016381457031249998,0.086020656,0.022623059,0.280110875
3.992,-0.000326458,0.01638082,0.086020523,0.022623025,0.28011059374999997
3.996,-0.000327095,0.016379613,0.086020789,0.022623326,0.280110188
4,-0.000327867,0.016379948242187498,0.086021664,0.022623395,0.28010956249999996
4.004,-0.000326794,0.01637958,0.086021391,0.022622287,0.28010975
4.008,-0.000330348,0.016380920898437498,0.0860225,0.02262326,0.280107219
4.012,-0.000335343,0.016382262,0.086024781,0.022625473,0.28010318749999996
4.016,-0.000334438,0.016382161,0.086023773,0.022625473,0.2801035
4.02,-0.000330817,0.016379513,0.086022234,0.022625238281249998,0.280105813
4.024,-0.000328906,0.016376964843749998,0.08602193,0.022624566406249998,0.280106719
4.028,-0.000329107,0.016375557,0.086022063,0.022625473,0.280106906
4.032,-0.000327364,0.016375188,0.086021766,0.02262507,0.280108531
4.036,-0.000328939,0.016374483,0.086022063,0.022625406,0.280107313
4.04,-0.000329912,0.016374986,0.08602257,0.022625941,0.280105875
4.044,-0.000331286,0.016376563,0.08602307,0.022625908,0.280105063
4.048,-0.000331119,0.01637569,0.086023,0.022625406,0.280105094
4.052,-0.000331722,0.016375188,0.08602257,0.022624365,0.280104625
4.056,-0.000331119,0.016374685,0.086022195,0.022623629,0.280104625
4.06,-0.000328906,0.016374584,0.086021227,0.022623193,0.28010637499999996
4.064,-0.000330783,0.016373176,0.086022031,0.022625371,0.28010575
4.068,-0.00033246,0.016372438,0.086022938,0.022627182,0.280103969
4.072,-0.000331856,0.016371399414062498,0.086023742,0.022627583984374998,0.280104406
4.076,-0.00033246,0.016371734,0.086024812,0.022628457,0.28010378124999996
4.08,-0.000332862,0.016372606,0.086025852,0.022628221,0.280102875
4.084,-0.00033246,0.016373376953124998,0.086026453,0.022627049,0.280102844
4.088,-0.00033256,0.016373478,0.086026422,0.022624602,0.280102719
4.092,-0.000332728,0.016372506,0.086026055,0.022622824,0.280102344
4.096,-0.000332661,0.016371802,0.08602518,0.022622656249999998,0.280101969
4.1,-0.000333834,0.016371936,0.086025312,0.022624467,0.28010118749999996
4.104,-0.000335343,0.016371566,0.086026422,0.022626947,0.280100125
4.108,-0.000334572,0.016369890624999998,0.086026625,0.022627953,0.280100938
4.112,-0.000334371,0.016369890624999998,0.086027094,0.022628289062499998,0.280100719
4.116,-0.000333969,0.016370293,0.086027531,0.022628221,0.28010081249999996
4.12,-0.000334572,0.016371365,0.086028703,0.022629227,0.280100313
4.124,-0.000335746,0.016372506,0.086030313,0.022629898,0.280099531
4.128,-0.000336852,0.016373478,0.086030313,0.022629395,0.280098938
4.132,-0.000337187,0.016372673,0.086030211,0.022627853515624997,0.280099
4.136,-0.000337757,0.016371667,0.086030008,0.022626947,0.28009843749999996
4.14,-0.000337388,0.016371868,0.086029336,0.022626043,0.28009843749999996
4.144,-0.000337087,0.016372104,0.086027461,0.022623963,0.28009825
4.148,-0.000336416,0.016371299,0.086027297,0.022623896,0.280098938
4.152,-0.000336785,0.016370024,0.086028102,0.022625506,0.280099125
4.156,-0.000335846,0.016368951,0.086028133,0.022625473,0.280099969
4.16,-0.000335176,0.01636637,0.086028063,0.022626479,0.2801005
4.164,-0.000336852,0.016365096,0.086028867,0.022627617187499997,0.280099344
4.168,-0.000336248,0.01636456,0.086029672,0.022626109374999998,0.280099969
4.172,-0.000334371,0.016364157,0.086028438,0.022623762,0.28010206249999997
4.176,-0.000338025,0.016364291,0.086028133,0.022623729,0.280098906
4.18,-0.00033702,0.016364023,0.086027969,0.022623796874999998,0.28009909374999997
4.184,-0.000335075,0.016362112,0.086028203,0.022624199,0.28010028124999997
4.188,-0.000335176,0.016360905,0.086028438,0.022624635,0.280100688
4.192,-0.000336148,0.016360569,0.086028867,0.022625305,0.280100688
4.196,-0.000336181,0.016360737304687498,0.086029711,0.022626142578124998,0.280100906
4.2,-0.000336181,0.016360871,0.086031047,0.022628154296874998,0.280100844
4.204,-0.000335578,0.016360469,0.086032023,0.022628893,0.280101156
4.208,-0.000338394,0.016360669921874998,0.086033297,0.022630199218749997,0.28009924999999997
4.212,-0.000342082,0.016361106,0.086035008,0.022631607421874998,0.280096781
4.216,-0.000341613,0.016360838,0.086035039,0.022631742187499998,0.280097719
4.22,-0.000341177,0.016361106,0.086034234,0.022631238,0.28009825
4.224,-0.000339434,0.016362246093749998,0.086034398,0.022631373,0.280099438
4.228,-0.000338763,0.016362548,0.086035406,0.022631406,0.28010025
4.232,-0.000338595,0.016362581,0.086036312,0.022631406,0.28010043749999997
4.236,-0.000339668,0.016362246093749998,0.086036578,0.022631439,0.280099594
4.24,-0.000339869,0.016362749023437498,0.086036812,0.022631541,0.280099344
4.244,-0.000338662,0.016362246093749998,0.086036578,0.022629998,0.280100938
4.248,-0.000338797,0.016360335,0.08603618,0.022629227,0.280101281
4.252,-0.000340674,0.016358592,0.086036148,0.022629428,0.2800995
4.256,-0.000338763,0.016356781,0.086034672,0.022628859374999998,0.280100969
4.26,-0.000342619,0.016355541,0.086034805,0.022630166015624998,0.280098031
4.264,-0.000344664,0.016355272,0.086035406,0.022630334,0.280096344
4.268,-0.000344697,0.016355642,0.086035578,0.022630601562499998,0.280096469
4.272,-0.000343222,0.016355742187499998,0.086035344,0.022630066,0.280097781
4.276,-0.000342116,0.016355909,0.086035242,0.022629395,0.280098844
4.28,-0.000341143,0.01635601,0.08603457,0.022628893,0.280099344
4.284,-0.000340641,0.016355239257812498,0.08603407,0.022627718749999998,0.2800995
4.288,-0.000341345,0.016354903,0.086034969,0.022626947,0.28009909374999997
4.292,-0.000341512,0.016354568,0.086035609,0.022626311,0.28009924999999997
4.296,-0.000341211,0.016353696,0.086035008,0.022626412,0.280099219
4.3,-0.000338998,0.016352858,0.086033836,0.022625908,0.280101094
4.304,-0.000342451,0.016351853,0.086034875,0.022628322,0.280098844
4.308,-0.00034453,0.01635088,0.086036414,0.022630300781249998,0.280097125
4.312,-0.000344731,0.016350377,0.086037656,0.022630469,0.280097406
4.316,-0.000344798,0.016351081054687498,0.086038094,0.022629529,0.280097531
4.32,-0.00034406,0.016352992,0.086038359,0.022628992,0.280097656
4.324,-0.000344831,0.016354636,0.086040273,0.022629328,0.280097375
4.328,-0.000345502,0.016355642,0.086042281,0.02262983,0.28009709374999997
4.332,-0.000345871,0.016355574,0.086041914,0.022628959,0.280096844
4.336,-0.000345469,0.016355004,0.086041008,0.022628859374999998,0.28009703124999996
4.34,-0.000341445,0.016353998,0.086039797,0.022628055,0.280100156
4.344,-0.000345469,0.016354166015624998,0.086041508,0.022630133,0.280097656
4.348,-0.000346206,0.016354535,0.086041977,0.022629463,0.280097281
4.352,-0.00034691,0.016353864,0.086041711,0.022628154296874998,0.280096813
4.356,-0.000347715,0.016353629882812498,0.086042516,0.022628154296874998,0.28009625
4.36,-0.000349123,0.016354132812499998,0.086044461,0.022629328,0.280094688
4.364,-0.000350062,0.016353965,0.086045398,0.02262983,0.280093969
4.368,-0.000349224,0.016353696,0.086045898,0.022629529,0.28009524999999996
4.372,-0.000348989,0.01635306,0.086046102,0.022629294921874998,0.28009575
4.376,-0.000351101,0.016353294,0.086046977,0.02263067,0.280093813
4.38,-0.000351973,0.016353864,0.086047609,0.022631775390624997,0.280093
4.384,-0.000351168,0.016353395,0.086047445,0.022631574,0.280093125
4.388,-0.000351269,0.016352222,0.086047609,0.022631775390624997,0.280093406
4.392,-0.000353515,0.016351550781249998,0.086048078,0.022631541,0.280091875
4.396,-0.000354622,0.01635145,0.086047547,0.022630634765624998,0.280090656
4.4,-0.00035432,0.016351115234374998,0.086047883,0.022630971,0.28009071874999997
4.404,-0.000354085,0.016351886,0.086048586,0.022631676,0.280090688
4.408,-0.000353381,0.016352322,0.086049188,0.022632078,0.280091406
4.412,-0.000351436,0.016351886,0.08604875,0.022631842,0.280093125
4.416,-0.000349291,0.016350344,0.08604768,0.022631238,0.280094938
4.42,-0.000354789,0.016351216,0.086049023,0.022633955,0.280090094
4.424,-0.000355158,0.016352523,0.086050063,0.022634525,0.28008953124999997
4.428,-0.000355024,0.016352222,0.086050695,0.022634156,0.280090031
4.432,-0.00035546,0.016352121093749998,0.086051133,0.022633318359374998,0.280090094
4.436,-0.000357874,0.016352355,0.086051773,0.022633753906249998,0.280088375
4.44,-0.000357807,0.016353395,0.086052242,0.022634826,0.280088094
4.444,-0.000355795,0.016352926,0.086052008,0.022634759765624998,0.280089938
4.448,-0.000356801,0.016353228,0.08605257,0.022634457,0.28008953124999997
4.452,-0.000357639,0.016353696,0.086052945,0.022633955,0.280088781
4.456,-0.000356264,0.016352657226562498,0.086053109,0.022632848,0.28008990624999996
4.46,-0.0003566,0.016353092773437498,0.086053281,0.022632613,0.280089281
4.464,-0.000357371,0.016353965,0.08605425,0.022633183593749998,0.280088625
4.468,-0.0003567,0.016352725,0.086054453,0.022632514,0.28008875
4.472,-0.000357438,0.016351518,0.08605475,0.022632514,0.280088094
4.476,-0.000357404,0.016351785,0.086054219,0.022631709,0.280088406
4.48,-0.000355762,0.016351483398437498,0.086052906,0.02263067,0.280089344
4.484,-0.000355795,0.016350477539062498,0.086052906,0.022630938,0.280089781
4.488,-0.000357304,0.016349908,0.086054352,0.022632916015624997,0.280088844
4.492,-0.000356197,0.016349773,0.086054922,0.022633418,0.28008974999999997
4.496,-0.000357538,0.016349506,0.086055187,0.022633418,0.280089219
4.5,-0.000362903,0.016350109374999998,0.086057438,0.022635631,0.2800845
4.504,-0.000362132,0.016350544921874998,0.086058273,0.022634961,0.280084594
4.508,-0.000362568,0.016349137,0.086057672,0.02263325,0.280084406
4.512,-0.000363037,0.01634793,0.086057398,0.022632547,0.280084469
4.516,-0.000364076,0.016347862,0.086057031,0.022631842,0.280083906
4.52,-0.000366155,0.016347962890624998,0.086058305,0.022632882812499998,0.280082469
4.524,-0.000366759,0.016347091796874998,0.086058844,0.022632682,0.280082063
4.528,-0.000366725,0.016345583,0.086058445,0.022632412,0.280082469
4.532,-0.000366691,0.016344879,0.086058305,0.02263258,0.280082844
4.536,-0.000368603,0.016345583,0.086059648,0.022634357421874998,0.280080719
4.54,-0.000367027,0.016347326,0.086060117,0.022634424,0.280081125
4.544,-0.000362668,0.016345147,0.086058508,0.022632982,0.28008475
4.548,-0.000361897,0.016342900390624998,0.086057875,0.022631876953124998,0.28008553124999996
4.552,-0.000366256,0.016341894531249998,0.086058445,0.022631508,0.280081906
4.556,-0.000365686,0.016342767,0.086058242,0.022629932,0.280081906
4.56,-0.000365652,0.016343202,0.086058305,0.022628523,0.280082
4.564,-0.00036763,0.016343403320312498,0.086059078,0.022628355,0.280080844
4.568,-0.000368435,0.016343639,0.086060992,0.022628758,0.280080219
4.572,-0.0003681,0.016344208,0.08606193,0.022629898,0.280081063
4.576,-0.000367362,0.016345583,0.086062063,0.022630736328124998,0.280081625
4.58,-0.000365149,0.016346555664062498,0.086060953,0.022630166015624998,0.280083063
4.584,-0.000364177,0.01634632,0.086059984,0.022628589843749998,0.280084219
4.588,-0.000368502,0.016345817,0.086061359,0.022629496,0.280080969
4.592,-0.000367496,0.016345918,0.086060891,0.022628824,0.28008196874999997
4.596,-0.000366893,0.016345885,0.086060586,0.022628557,0.280082
4.6,-0.000367329,0.016345349,0.086060617,0.022629061,0.280081719
4.604,-0.000368837,0.016345817,0.086061992,0.022631607421874998,0.2800805
4.608,-0.000368871,0.016345684,0.086064008,0.022633049,0.280080219
4.612,-0.000370614,0.016345349,0.086066156,0.022634123,0.28007875
4.616,-0.000373464,0.016346085937499998,0.086068,0.022636469,0.280076938
4.62,-0.000375677,0.016346354,0.086068195,0.022638348,0.280075531
4.624,-0.000373062,0.016345382,0.086066992,0.022637374999999998,0.280077281
4.628,-0.000370245,0.01634508,0.086066484,0.022634859,0.28007921874999997
4.632,-0.000374034,0.016344409179687498,0.086067859,0.022635631,0.28007675
4.636,-0.00037514,0.016343639,0.08606857,0.022636973,0.28007575
4.64,-0.000375912,0.016343202,0.08606857,0.022637877,0.28007543749999997
4.644,-0.000376884,0.016343236,0.086069773,0.022638816406249998,0.280074531
4.648,-0.000375107,0.016344208,0.08607018,0.022638414062499997,0.28007603124999997
4.652,-0.000374001,0.016342900390624998,0.0860685,0.022635933593749998,0.280077281
4.656,-0.000371821,0.016340956054687498,0.086066555,0.022632982,0.280079063
4.66,-0.000375744,0.016340888671874998,0.086066758,0.022633955,0.280075406
4.664,-0.000376079,0.016341794,0.086067492,0.022636033,0.280075469
4.668,-0.00037571,0.016341995,0.086068063,0.022635732,0.280076375
4.672,-0.000374973,0.016342297,0.086068063,0.022634625,0.280077125
4.676,-0.000375777,0.016341728,0.08606857,0.022635531,0.280076375
4.68,-0.000374638,0.016341358,0.086068133,0.022634357421874998,0.280077281
4.684,-0.000375275,0.016341391601562498,0.086069102,0.022634021,0.280076531
4.688,-0.000377253,0.016342096,0.086069875,0.02263325,0.28007521874999997
4.692,-0.000377286,0.016342397460937498,0.086069773,0.022631809,0.280075688
4.696,-0.000377789,0.016342633,0.086070211,0.022631977,0.280075406
4.7,-0.000378124,0.016342464843749998,0.086070445,0.022632882812499998,0.280074906
4.704,-0.000379834,0.016341828,0.08607118,0.022633955,0.28007343749999997
4.708,-0.000381511,0.016341593,0.086072727,0.022634424,0.280072969
4.712,-0.000380505,0.016340956054687498,0.086072555,0.022633921874999997,0.280073625
4.716,-0.000380002,0.016340888671874998,0.086072055,0.022633016,0.280073906
4.72,-0.000378326,0.016341961914062498,0.086071984,0.022631742187499998,0.28007506249999997
4.724,-0.000377387,0.01634223,0.086071688,0.0226301,0.280076125
4.728,-0.000376884,0.01634223,0.086071219,0.022627718749999998,0.280076906
4.732,-0.00037447,0.016341291,0.086069609,0.022625641,0.280078969
4.736,-0.000379264,0.016339950195312498,0.08607018,0.022626377,0.280075469
4.74,-0.000383656,0.016340855,0.086072055,0.022627718749999998,0.280071688
4.744,-0.000381377,0.016342867,0.086072625,0.022628055,0.280072875
4.748,-0.000380907,0.016342532226562498,0.086072891,0.022628055,0.280073625
4.752,-0.000382584,0.01634223,0.086073695,0.022628154296874998,0.280073188
4.756,-0.000381444,0.01634156,0.086074133,0.022627752,0.28007478124999996
4.76,-0.000380605,0.016340989,0.086073195,0.022627484,0.280075969
4.764,-0.000382315,0.016341124,0.086073695,0.022628623046874997,0.28007440624999996
4.768,-0.000383288,0.016340319,0.086074969,0.022629797,0.280073781
4.772,-0.000384629,0.016339749,0.086075977,0.022630736328124998,0.280072875
4.776,-0.000385098,0.016338575,0.086075945,0.022631439,0.280072688
4.78,-0.000384696,0.016337905273437498,0.086075742,0.022630601562499998,0.280073375
4.784,-0.000383589,0.016337837890624998,0.086075742,0.022629529,0.28007462499999997
4.788,-0.000382584,0.016337469,0.086075039,0.02262849,0.28007618749999996
4.792,-0.000380706,0.016336631,0.086074734,0.022627853515624997,0.280077688
4.796,-0.000383288,0.016336263,0.086075773,0.022629061,0.28007575
4.8,-0.000383858,0.016335927,0.086076141,0.022629227,0.280075406
4.804,-0.000382952,0.016336027,0.086076547,0.022628926,0.280076438
4.808,-0.000382617,0.016334854,0.086076242,0.022629563,0.280077156
4.812,-0.000382584,0.016334418,0.086075977,0.022628992,0.28007737499999996
4.816,-0.000383355,0.016334485,0.086075406,0.022628221,0.280076656
4.82,-0.00038483,0.01633472,0.086076242,0.022628422,0.28007537499999996
4.824,-0.000384059,0.016333412,0.086076375,0.022628389,0.280075875
4.828,-0.000382718,0.016332038,0.086076242,0.022627583984374998,0.280077625
4.832,-0.000385936,0.016330965,0.086076984,0.022627383,0.28007537499999996
4.836,-0.000386406,0.016329825195312498,0.086076883,0.022627484,0.280074719
4.84,-0.000386976,0.016332004,0.08607725,0.022627583984374998,0.28007387499999997
4.844,-0.000387646,0.016333714,0.086078258,0.022627752,0.28007299999999996
4.848,-0.000385366,0.016333781,0.086077422,0.022625941,0.280075125
4.852,-0.000384931,0.016333681,0.086076313,0.022623596,0.280075875
4.856,-0.000384931,0.016333412,0.086075773,0.022621785156249997,0.28007618749999996
4.86,-0.000385802,0.01633301,0.086076648,0.022622488,0.280075469
4.864,-0.000387378,0.016332239,0.086078227,0.022623963,0.280073688
4.868,-0.000389524,0.016332104,0.086080398,0.022626814453124998,0.280071625
4.872,-0.000389557,0.016331501,0.086081508,0.022627316,0.280071906
4.876,-0.000389189,0.016330328124999998,0.086080938,0.022627451,0.280072531
4.88,-0.00038949,0.016329892,0.086080734,0.022627484,0.280072156
4.884,-0.000388183,0.016328148,0.086079461,0.022626578124999998,0.280073563
4.888,-0.000394251,0.016327847,0.086081609,0.022627818,0.28006928124999997
4.892,-0.000394654,0.016328886,0.086082781,0.02262792,0.280068938
4.896,-0.000394352,0.01632845,0.086083086,0.022628758,0.280069
4.9,-0.000394922,0.016327847,0.086083687,0.022628691,0.280067938
4.904,-0.000394922,0.016326672851562498,0.086083687,0.022628389,0.28006771874999997
4.908,-0.000396665,0.016324662,0.086083687,0.022628187499999997,0.280066719
4.912,-0.000398643,0.016322885,0.086083086,0.022627718749999998,0.280065344
4.916,-0.000398342,0.016321645,0.086082781,0.022628322,0.280065094
4.92,-0.000396263,0.016319196,0.086081445,0.022628557,0.280066563
4.924,-0.000400856,0.016318258,0.086082813,0.022630568,0.280063406
4.928,-0.000401493,0.016319095703124998,0.086083617,0.022630938,0.280062625
4.932,-0.000401191,0.016319532,0.086084391,0.022630938,0.280062375
4.936,-0.000400957,0.016318358,0.086084227,0.022631171874999998,0.280062563
4.94,-0.000401493,0.016316749,0.086083086,0.022630568,0.280062219
4.944,-0.000403471,0.016315743,0.086082914,0.0226301,0.280061156
4.948,-0.000406053,0.016315844,0.086083523,0.022629395,0.280059313
4.952,-0.000405885,0.016313933,0.086083086,0.022629094,0.280059406
4.956,-0.000406221,0.016312491,0.086083617,0.022629730468749998,0.280059313
4.96,-0.000407696,0.016313832,0.086084523,0.022631508,0.28005825
4.964,-0.000406254,0.016314234,0.086084961,0.022631607421874998,0.280059406
4.968,-0.000409372,0.016313464,0.086086406,0.022632748046874998,0.28005696874999997
4.972,-0.000409976,0.01631343,0.086086438,0.022633117,0.28005599999999997
4.976,-0.000408903,0.016312559,0.086085969,0.022632748046874998,0.28005653124999996
4.98,-0.000408836,0.016312994,0.086087445,0.022633854,0.280056656
4.984,-0.000408702,0.01631286,0.086088313,0.022633888671874998,0.280057313
4.988,-0.000409909,0.016311653320312498,0.086088648,0.022633351562499997,0.28005659374999997
4.992,-0.000411853,0.016311754,0.086090391,0.022634927734374997,0.28005540624999997
4.996,-0.000411183,0.016313263,0.0860915,0.022634693,0.28005525
5,-0.000410378,0.016311485,0.086087914,0.022630769531249997,0.28005575
5.004,-0.000410613,0.016308535156249998,0.086084797,0.022628154296874998,0.280055375
5.008,-0.000411451,0.016308367,0.086085461,0.022628055,0.28005459374999997
5.012,-0.000411618,0.016306725,0.086085531,0.022626712890624998,0.280054688
5.016,-0.000412758,0.016305719,0.086085398,0.02262574,0.280053906
5.02,-0.000413597,0.016306154,0.086086234,0.022626109374999998,0.280053438
5.024,-0.000414133,0.016305885742187498,0.086087813,0.022627752,0.280052938
5.028,-0.00041477,0.016306121,0.086089625,0.022628623046874997,0.280052906
5.032,-0.000415776,0.016306222,0.086090961,0.022629898,0.280051906
5.036,-0.000414636,0.016305853,0.086090727,0.022630268,0.28005215624999996
5.04,-0.000412188,0.016305014648437498,0.086088648,0.022628523,0.280054094
5.044,-0.00041705,0.016305719,0.086089891,0.022629261718749998,0.280050906
5.048,-0.000418223,0.016304947265624998,0.086091266,0.022629898,0.28005025
5.052,-0.000418659,0.016304947265624998,0.086091633,0.022629061,0.28004978124999996
5.056,-0.000418726,0.016304612,0.086091367,0.022629261718749998,0.280049094
5.06,-0.000419095,0.016303372,0.086091469,0.022629965,0.280048625
5.064,-0.000419062,0.016302299,0.086091031,0.022629664,0.28004875
5.068,-0.000420436,0.016301729,0.086090727,0.022628926,0.280048281
5.072,-0.000420168,0.016300723,0.086089484,0.022627551,0.280048563
5.076,-0.000420805,0.01630126,0.086088484,0.022626847656249997,0.280047719
5.08,-0.00042171,0.016300757,0.086088516,0.022628422,0.28004675
5.084,-0.000420872,0.016300589,0.086088953,0.022628824,0.28004778124999996
5.088,-0.000421643,0.016299918,0.08608882,0.022628121,0.280047719
5.092,-0.000424124,0.01630079,0.08608982,0.022628824,0.280045969
5.096,-0.000424661,0.016301863,0.086090391,0.022629227,0.280045375
5.1,-0.000425432,0.016300589,0.086090531,0.022628758,0.28004487499999997
5.104,-0.000424962,0.016300622,0.086090227,0.022628355,0.28004546874999997
5.108,-0.000427779,0.016301024,0.086091336,0.022628724609374998,0.28004340624999996
5.112,-0.0004256,0.016299918,0.086091734,0.022628088,0.280045313
5.116,-0.000423823,0.016298308593749998,0.086091766,0.022628557,0.280046688
5.12,-0.000428718,0.016298544,0.08609368,0.022630601562499998,0.28004309374999997
5.124,-0.000430796,0.016299047,0.08609475,0.022631238,0.28004124999999996
5.128,-0.000430562,0.01629965,0.08609475,0.022630836,0.280042156
5.132,-0.000432204,0.016299147,0.086095055,0.022630904,0.280041344
5.136,-0.000432372,0.016298811523437498,0.08609425,0.022629395,0.280041125
5.14,-0.000432942,0.016299248,0.08609318,0.022628658,0.280040344
5.144,-0.000432272,0.01630022,0.086093141,0.02262735,0.280040813
5.148,-0.000431903,0.016302165,0.086093914,0.022626412,0.28004087499999997
5.152,-0.000432204,0.016302969726562498,0.086094688,0.022625908,0.280040344
5.156,-0.000433646,0.01630203,0.086095023,0.022626109374999998,0.280038906
5.16,-0.000434551,0.016300086,0.086094852,0.022626679687499998,0.280037969
5.164,-0.000434987,0.016299415,0.086095258,0.02262698,0.280037594
5.168,-0.000435423,0.016298912,0.086095555,0.022627316,0.280037188
5.172,-0.00043606,0.016298343,0.086096023,0.022627217,0.28003693749999997
5.176,-0.000436898,0.016299482,0.086095992,0.022626712890624998,0.280036094
5.18,-0.000435892,0.016300320312499998,0.086096328,0.022626578124999998,0.280035875
5.184,-0.000436362,0.016299281,0.086096258,0.022624802734374998,0.280035938
5.188,-0.000438709,0.016299449218749998,0.086097297,0.022624701171874997,0.280034375
5.192,-0.000438508,0.016298711,0.086096695,0.022625271484374997,0.280034563
5.196,-0.000436764,0.016297873046874998,0.086095891,0.022625572265624998,0.28003546874999996
5.2,-0.000440888,0.016297403,0.086096898,0.022627417968749997,0.280032469
5.204,-0.000442263,0.016299013,0.086098008,0.022629730468749998,0.28003093749999997
5.208,-0.000442464,0.016298142,0.086099281,0.02263191,0.280030906
5.212,-0.000443302,0.016296397,0.086100086,0.022632949,0.28003025
5.216,-0.000443939,0.016294956,0.086100422,0.022633486,0.280029625
5.22,-0.000444543,0.016295593,0.086100891,0.022633216796874998,0.280028906
5.224,-0.000445247,0.016296264,0.086101523,0.02263315,0.28002812499999996
5.228,-0.000447225,0.016295995,0.0861025,0.022634324218749998,0.280026625
5.232,-0.000449572,0.016296397,0.08610407,0.02263543,0.28002478124999997
5.236,-0.000447828,0.016295358398437498,0.086103305,0.02263543,0.28002559374999997
5.24,-0.00044528,0.016292944,0.086101461,0.022635027,0.28002699999999997
5.244,-0.000445448,0.016292979,0.086101891,0.022635096,0.28002656249999996
5.248,-0.000447057,0.016292576,0.086102734,0.022636469,0.2800255
5.252,-0.000449371,0.016292341,0.086103133,0.022636436,0.28002425
5.256,-0.000449304,0.016292408,0.086103133,0.022635933593749998,0.280024719
5.26,-0.000448398,0.016293146,0.086102227,0.022634525,0.280025344
5.264,-0.000448901,0.016293447,0.086102633,0.022634357421874998,0.2800245
5.268,-0.000449505,0.016293347,0.086103469,0.022633721,0.280023844
5.272,-0.00045041,0.016293012,0.086103234,0.022632949,0.280023313
5.276,-0.000450544,0.016293213,0.086102734,0.022633385,0.280023031
5.28,-0.00045098,0.016293012,0.086102734,0.022634291,0.28002299999999997
5.284,-0.000451751,0.016291838,0.086103641,0.022635096,0.28002256249999996
5.288,-0.000449739,0.016290095,0.086103672,0.022633888671874998,0.28002462499999997
5.292,-0.000456277,0.016289056,0.086105008,0.022634961,0.280020719
5.296,-0.000458691,0.016288586,0.086105578,0.022635664062499998,0.2800185
5.3,-0.00045668,0.016287346,0.086104609,0.022635598,0.28001981249999996
5.304,-0.000457015,0.016287748046874998,0.086104141,0.022634859,0.280019625
5.308,-0.000458054,0.016287145,0.086103937,0.022634021,0.280019563
5.312,-0.00045896,0.016286406,0.08610357,0.022633619,0.280019344
5.316,-0.000459798,0.016285803,0.086103672,0.022633854,0.28001818749999996
5.32,-0.00045963,0.016285803,0.086103203,0.022633084,0.28001787499999997
5.324,-0.000461206,0.016285468,0.086103203,0.022633183593749998,0.280016531
5.328,-0.000461139,0.016284026,0.086103305,0.022633285,0.2800165
5.332,-0.000461038,0.016283154296874998,0.086102898,0.022633084,0.28001668749999997
5.336,-0.000460636,0.016283255,0.086102664,0.022633117,0.28001699999999996
5.34,-0.000458054,0.01628339,0.086102633,0.022632848,0.280019344
5.344,-0.00046201,0.016283255,0.086103836,0.022633586,0.280017031
5.348,-0.000463855,0.016283523,0.086105383,0.022633351562499997,0.280015906
5.352,-0.00046315,0.016282853,0.08610525,0.022632345703124997,0.280016563
5.356,-0.00046315,0.016283221679687498,0.086104008,0.022632412,0.280016594
5.36,-0.000462882,0.016283255,0.086104039,0.022632916015624997,0.280016313
5.364,-0.000462882,0.016281645507812498,0.086104875,0.022632345703124997,0.280016719
5.368,-0.000463251,0.016280606445312498,0.086104945,0.022631943,0.280016875
5.372,-0.000461373,0.016280473,0.086104039,0.022631439,0.280018656
5.376,-0.00046419,0.016280103515624998,0.08610525,0.022632949,0.280016594
5.38,-0.000463586,0.016281042,0.086106148,0.022633216796874998,0.280016719
5.384,-0.000462815,0.016281645507812498,0.086107656,0.02263325,0.28001765624999997
5.388,-0.000463821,0.016280606445312498,0.086108094,0.022633385,0.280017344
5.392,-0.000465665,0.016280305,0.086109438,0.022632949,0.280016188
5.396,-0.000466939,0.016281209960937498,0.086109836,0.022633351562499997,0.280015344
5.4,-0.000465363,0.016280204,0.086108703,0.022631943,0.280016656
5.404,-0.000465162,0.016279064,0.086108664,0.022631439,0.280016719
5.408,-0.000467174,0.016278729,0.086109539,0.022631977,0.280015188
5.412,-0.000467107,0.016278662109374998,0.086109469,0.022631574,0.280015125
5.416,-0.000468079,0.016277857,0.086109336,0.022631339843749997,0.280014344
5.42,-0.000469353,0.016278125,0.08611007,0.022632514,0.280012938
5.424,-0.000469957,0.01627893,0.086110781,0.022633418,0.28001224999999996
5.428,-0.00046942,0.016278729,0.08611175,0.022633619,0.28001306249999997
5.432,-0.000469588,0.01627826,0.08611175,0.022633988,0.280013375
5.436,-0.000469856,0.016277254,0.086110578,0.022633888671874998,0.280012656
5.44,-0.000469923,0.016277254,0.086110375,0.022633888671874998,0.280012406
5.444,-0.000469085,0.016277018554687498,0.08611068,0.022632882812499998,0.280012719
5.448,-0.000468515,0.016277153320312498,0.086110508,0.022630803,0.280013375
5.452,-0.000469286,0.016275812,0.086110508,0.022630066,0.280013
5.456,-0.000470258,0.016275275,0.08611118,0.022631775390624997,0.280012281
5.46,-0.000471599,0.016276952,0.086112117,0.022634357421874998,0.280011313
5.464,-0.000472974,0.016277254,0.086113094,0.022635129,0.28001075
5.468,-0.000473678,0.016277085937499998,0.086114031,0.022635096,0.280011094
5.472,-0.000474919,0.016276482,0.086115039,0.022634759765624998,0.280010625
5.476,-0.000473946,0.016276314,0.086114336,0.022634123,0.28001125
5.48,-0.000472102,0.016277388,0.086112687,0.02263325,0.280013156
5.484,-0.000476997,0.016277521484374998,0.086113492,0.022634424,0.280009594
5.488,-0.000477064,0.016276181,0.086113797,0.022634792968749998,0.280009781
5.492,-0.000477836,0.01627494,0.086113859,0.022635531,0.28000975
5.496,-0.00047807,0.016274102,0.086114336,0.022636436,0.280009156
5.5,-0.000477735,0.016272157,0.086114367,0.022636135,0.280009531
5.504,-0.000474885,0.016271587890624998,0.086113328,0.022633451,0.280011844
5.508,-0.000478104,0.016271822,0.086115805,0.022634592,0.28000949999999997
5.512,-0.000480652,0.016272191,0.086117148,0.022636267578124997,0.280007563
5.516,-0.000480752,0.016272023437499998,0.086115609,0.022636,0.280007406
5.52,-0.000481691,0.01627323,0.086115273,0.022636804687499998,0.28000653124999997
5.524,-0.000481389,0.016272526367187498,0.08611443,0.022636973,0.280007
5.528,-0.000481088,0.016271051,0.086113094,0.022635832,0.280007781
5.532,-0.000480819,0.016269441406249998,0.086112016,0.022635699,0.280008156
5.536,-0.000480317,0.016269207,0.086111078,0.022635261718749997,0.280008844
5.54,-0.000480685,0.016268973,0.086110344,0.022635498046874997,0.28000831249999997
5.544,-0.000479277,0.016268938476562498,0.086109234,0.022635498046874997,0.28000890624999997
5.548,-0.000479478,0.016268335,0.086108398,0.022635162,0.280009188
5.552,-0.000484038,0.016269005859374998,0.086109906,0.022637744,0.280005688
5.556,-0.000482965,0.016268402,0.086109602,0.022637675781249998,0.2800065
5.56,-0.000482496,0.016267967,0.086108195,0.022638078,0.280006719
5.564,-0.000482429,0.016269743,0.086108664,0.022638951171874998,0.28000690624999997
5.568,-0.000481389,0.016270079101562498,0.086107828,0.022638414062499997,0.28000787499999996
5.572,-0.000481691,0.01626914,0.086107227,0.022637877,0.280007969
5.576,-0.000482731,0.016269174,0.08610632,0.022638146,0.280007188
5.58,-0.00048444,0.016268805,0.086105914,0.022639453,0.28000528124999996
5.584,-0.000483669,0.016268201,0.086105883,0.022639720703124998,0.280005688
5.588,-0.000483267,0.016268067382812498,0.086105617,0.022638984,0.28000615624999997
5.592,-0.0004832,0.016267731,0.086103969,0.022637374999999998,0.280006594
5.596,-0.000482865,0.016266056,0.086101656,0.022635832,0.280006844
5.6,-0.000482094,0.016264278,0.086100891,0.022635297,0.28000725
5.604,-0.000480819,0.016263004,0.086100117,0.022633921874999997,0.280008156
5.608,-0.00048025,0.016262904,0.086098609,0.022632781249999998,0.280009031
5.612,-0.000481121,0.016262434570312498,0.086097836,0.022632078,0.280009406
5.616,-0.00048672,0.016262334,0.086098375,0.022633787109374998,0.280004781
5.62,-0.000487659,0.016262971,0.086098508,0.022634792968749998,0.280003375
5.624,-0.000488296,0.016263373046874998,0.086099047,0.022636267578124997,0.280002625
5.628,-0.000486553,0.016263305664062498,0.086099047,0.022636234374999998,0.280004344
5.632,-0.000486251,0.016261697,0.086098844,0.022636201,0.280005094
5.636,-0.000492319,0.016261663,0.086100383,0.022637877,0.28000025
5.64,-0.000491615,0.016262434570312498,0.086100852,0.022638447,0.280000188
5.644,-0.000488967,0.016260691,0.086099578,0.022637273437499997,0.280002188
5.648,-0.000488732,0.016260758,0.086098305,0.022635531,0.280002844
5.652,-0.000488933,0.016261295,0.086099047,0.022635096,0.280002594
5.656,-0.000488296,0.016260255,0.08609918,0.022635027,0.280003281
5.66,-0.000487793,0.016260255,0.086098477,0.022635598,0.280003625
5.664,-0.000487357,0.016259886718749998,0.086097938,0.022635967,0.280003844
5.668,-0.000488162,0.01625868,0.086097102,0.022635129,0.280004031
5.672,-0.000488531,0.016257976,0.086096727,0.022634222656249998,0.28000431249999996
5.676,-0.000488631,0.016257237304687498,0.086095555,0.022633619,0.280003969
5.68,-0.000489738,0.016257171,0.086095555,0.022634424,0.280003281
5.684,-0.000491749,0.016256769,0.086096492,0.022635900390624998,0.280002
5.688,-0.000493225,0.01625707,0.086096961,0.022636168,0.280000938
5.692,-0.000492655,0.016257405,0.086096328,0.022636102,0.280001438
5.696,-0.000490174,0.016255997,0.086094555,0.022635363281249998,0.280003281
5.7,-0.000489235,0.016256131,0.086094352,0.022635564,0.280004188
5.704,-0.000493024,0.016257405,0.086096328,0.022637039,0.28000074999999996
5.708,-0.000492688,0.016257104,0.086096125,0.022636537,0.280001094
5.712,-0.000492688,0.016257137,0.086095219,0.022635598,0.280001094
5.716,-0.000492118,0.016257337890624998,0.086094414,0.022635096,0.28000096874999997
5.72,-0.000491917,0.016258143,0.086093844,0.022635699,0.280000938
5.724,-0.00049185,0.016257840820312498,0.086093414,0.022636066,0.28000125
5.728,-0.00049014,0.016256668,0.086092,0.022634424,0.280003406
5.732,-0.000493225,0.016256567,0.086091633,0.022633351562499997,0.280001875
5.736,-0.000495035,0.016256098,0.086090531,0.022632177734374998,0.280000344
5.74,-0.000495169,0.016255896,0.086090898,0.022633216796874998,0.280000094
5.744,-0.000495303,0.016255728515624998,0.086091805,0.022634792968749998,0.280000219
5.748,-0.000494767,0.0162565,0.086091469,0.022635027,0.280000625
5.752,-0.000495303,0.016256936,0.08609157,0.022635531,0.280000344
5.756,-0.000495907,0.016256399,0.086092273,0.022635967,0.279999531
5.76,-0.000495471,0.016256231445312498,0.086091805,0.022636469,0.27999975
5.764,-0.000494733,0.016255225585937498,0.086091234,0.022636102,0.280000438
5.768,-0.000495505,0.016254823,0.086091234,0.022635798828124998,0.279999625
5.772,-0.00049698,0.016254488,0.086092,0.022636637,0.2799985
5.776,-0.000496712,0.016254086,0.08609093,0.022636033,0.279998406
5.78,-0.000494733,0.016253449,0.086089391,0.022635363281249998,0.27999993749999996
5.784,-0.000494264,0.016251538,0.08608932,0.022636369140624998,0.280000406
5.788,-0.000492889,0.016249023,0.086089289,0.022636637,0.280001969
5.792,-0.000497516,0.016249091,0.086090828,0.022637810546874998,0.27999859374999997
5.796,-0.000498187,0.016249861,0.086091094,0.022637877,0.27999725
5.8,-0.000497583,0.016252108,0.086091398,0.022638783,0.279996844
5.804,-0.000497919,0.016253482,0.086091734,0.02263818,0.279996656
5.808,-0.000497952,0.016252645,0.086091867,0.022637072,0.279996781
5.812,-0.00049869,0.016250432,0.086091469,0.022637039,0.279996938
5.816,-0.000503317,0.016249594,0.086092141,0.022639051,0.279993063
5.82,-0.000504088,0.016249594,0.086092641,0.022640324,0.27999175
5.824,-0.00050392,0.016249358,0.086091898,0.022639555,0.279991938
5.828,-0.000500936,0.016247984,0.086090328,0.022637374999999998,0.279994344
5.832,-0.000499628,0.016246341,0.086088383,0.022635531,0.279995969
5.836,-0.000501473,0.016244598,0.086087641,0.022636033,0.279994406
5.84,-0.000503317,0.01624376,0.086087813,0.022637374999999998,0.279992406
5.844,-0.000501808,0.016241814,0.086087141,0.022635531,0.279993438
5.848,-0.000504322,0.016240641601562498,0.086086703,0.022634291,0.27999199999999996
5.852,-0.000506938,0.016239367,0.086086703,0.022635766,0.27998984374999997
5.856,-0.000507306,0.016237423,0.086086469,0.022635798828124998,0.279989531
5.86,-0.000507306,0.016236047851562498,0.086085266,0.022635664062499998,0.27998946874999997
5.864,-0.000507206,0.016236853,0.086084797,0.022635631,0.279989563
5.868,-0.000506803,0.016237020507812498,0.08608493,0.022636,0.27998984374999997
5.872,-0.000506837,0.016236183,0.086084289,0.022635832,0.279990375
5.876,-0.000507507,0.016234774,0.086083555,0.022636369140624998,0.279989688
5.88,-0.000508413,0.016233231,0.086083016,0.022636973,0.279988531
5.884,-0.000508949,0.016233668,0.086083352,0.022637141,0.279988688
5.888,-0.000508547,0.016235177,0.086084289,0.022637207,0.279989563
5.892,-0.00050858,0.016234606,0.086083617,0.022635297,0.279989563
5.896,-0.000507809,0.016233432617187498,0.08608225,0.022633553,0.27999006249999997
5.9,-0.0005119,0.016233601,0.086082953,0.02263543,0.279987
5.904,-0.000512335,0.016233064453124998,0.086082578,0.022636267578124997,0.27998621874999996
5.908,-0.000511866,0.016231857,0.08608168,0.022636033,0.279986938
5.912,-0.000512101,0.016230315,0.086080672,0.022634961,0.279987063
5.916,-0.000511799,0.01622931,0.086081109,0.022635900390624998,0.279987188
5.92,-0.000513006,0.016230449218749998,0.08608168,0.022637475,0.27998584374999996
5.924,-0.000513274,0.016230684,0.08608225,0.022637777,0.279985375
5.928,-0.00051428,0.016230215,0.086082008,0.022636939453124998,0.279985
5.932,-0.000518303,0.016229678,0.086082617,0.022637207,0.279982188
5.936,-0.000518806,0.016228973632812498,0.086082719,0.022637711,0.279981563
5.94,-0.000519309,0.0162276,0.08608332,0.022637945312499998,0.279980688
5.944,-0.000520114,0.016227298,0.086084258,0.022638615,0.279980219
5.948,-0.00052008,0.016226996093749998,0.086084125,0.022638045,0.27998065624999996
5.952,-0.00052112,0.016226459,0.086084156,0.022637979,0.27998006249999996
5.956,-0.000521522,0.016226057,0.086084359,0.022638012,0.2799795
5.96,-0.00052236,0.016225186,0.086084187,0.022638348,0.27997931249999997
5.964,-0.000524472,0.016225118,0.086085766,0.022640492,0.2799775
5.968,-0.000524741,0.016225621,0.086085797,0.022640291015624998,0.279977563
5.972,-0.000525948,0.016225118,0.0860855,0.022640057,0.279977031
5.976,-0.000525646,0.016225151,0.086085031,0.022640561,0.279976813
5.98,-0.00052464,0.016225789,0.086084562,0.022640291015624998,0.279977781
5.984,-0.000523768,0.01622418,0.086083117,0.022639018,0.279978656
5.988,-0.000524975,0.016221798828124998,0.086081578,0.022639219,0.279977719
5.992,-0.000526551,0.016221798828124998,0.086081977,0.022640392578124998,0.279976375
5.996,-0.000527792,0.016222604,0.086083117,0.022641968749999998,0.279975219
6,-0.000527557,0.016222033,0.08608325,0.022641666,0.279975594
6.004,-0.00052407,0.016220290039062498,0.086082078,0.022639486,0.279978313
6.008,-0.000525478,0.016219418945312498,0.086081742,0.022639453,0.27997774999999997
6.012,-0.000528797,0.016217943,0.086081773,0.022639419921874997,0.27997537499999997
6.016,-0.000529066,0.016217272460937498,0.086081141,0.022638012,0.279974531
6.02,-0.000530072,0.016217943,0.086081344,0.022638447,0.279973719
6.024,-0.000530306,0.016219017,0.086081508,0.022639419921874997,0.27997353124999996
6.028,-0.000529435,0.016219754,0.086081344,0.022639453,0.27997412499999996
6.032,-0.000528026,0.016219251,0.086080805,0.022637309,0.279975094
6.036,-0.000527926,0.016218413085937498,0.086079633,0.022636771,0.279974906
6.04,-0.000527289,0.016217508,0.086079227,0.022637039,0.27997537499999997
6.044,-0.000528429,0.016217407226562498,0.08608,0.022637945312499998,0.279974969
6.048,-0.000529803,0.016216736,0.08607993,0.022637039,0.27997412499999996
6.052,-0.000529803,0.016216166,0.086080164,0.022637039,0.2799745
6.056,-0.000529367,0.016215932,0.08607993,0.022636369140624998,0.279974969
6.06,-0.000529904,0.016214825,0.086079125,0.022636469,0.279974844
6.064,-0.000530642,0.01621439,0.086079164,0.022637374999999998,0.279973625
6.068,-0.00053148,0.016214289062499998,0.086079594,0.022637609,0.27997325
6.072,-0.000532955,0.01621449,0.086080305,0.022638246093749998,0.279972844
6.076,-0.000533156,0.01621345,0.086080539,0.022639957031249998,0.279972688
6.08,-0.000533123,0.016213148437499998,0.086080773,0.022640861328124998,0.279972375
6.084,-0.000534128,0.016212545,0.086080773,0.022641063,0.279971875
6.088,-0.000534799,0.016212378,0.086080805,0.022640225,0.279971938
6.092,-0.000532687,0.016212712890624998,0.086080164,0.022638549,0.279973875
6.096,-0.000529803,0.01621107,0.086078391,0.022636939453124998,0.27997693749999997
6.1,-0.00053909,0.016211539,0.086080938,0.022639990234374997,0.279969469
6.104,-0.000538521,0.016212914,0.086081406,0.022640123,0.279969844
6.108,-0.000538688,0.016212645507812498,0.086082484,0.022641029,0.279969938
6.112,-0.000538185,0.016211237,0.086082719,0.02264066,0.279970219
6.116,-0.000539962,0.016211305,0.086082281,0.022640492,0.279968844
6.12,-0.000539593,0.016211539,0.086081945,0.022640023,0.279969063
6.124,-0.000539158,0.016210734,0.086081578,0.022640895,0.27996925
6.128,-0.000539426,0.016210064,0.086081742,0.022641164,0.279968844
6.132,-0.000540599,0.016209729492187498,0.086081914,0.022641164,0.279967875
6.136,-0.000540499,0.016209662,0.086080734,0.022640492,0.27996796874999996
6.14,-0.000540767,0.01620936,0.086080266,0.022640693,0.279967938
6.144,-0.00054184,0.016208857,0.086081039,0.022640828124999998,0.27996759374999997
6.148,-0.000542879,0.016209896,0.086082414,0.022640795,0.27996759374999997
6.152,-0.000543047,0.016210265624999998,0.086081742,0.022640057,0.279967938
6.156,-0.00054251,0.016209428,0.086080672,0.022639051,0.279967531
6.16,-0.000542343,0.016209394,0.086080102,0.022639318,0.279967875
6.164,-0.000543315,0.016209528,0.086080398,0.022639219,0.279967344
6.168,-0.000543818,0.016208522,0.08608057,0.022638313,0.279966969
6.172,-0.000545025,0.016207517,0.086080398,0.022638213,0.279966
6.176,-0.000547405,0.016207014,0.0860805,0.022639588,0.279964563
6.18,-0.000548713,0.016206041,0.086081445,0.022641666,0.279963469
6.184,-0.000550121,0.016207382,0.086084125,0.022644516,0.279962313
6.188,-0.000548478,0.016209394,0.08608543,0.022645521,0.279963375
6.192,-0.000547305,0.016208086,0.086082953,0.02264351,0.279964719
6.196,-0.000549316,0.016206343,0.086081273,0.022642404296874998,0.279963156
6.2,-0.000548109,0.016205035,0.086080734,0.02264133,0.279964438
6.204,-0.000547238,0.016203694335937498,0.0860795,0.022639453,0.279965625
6.208,-0.000547439,0.016201481,0.08607775,0.022637979,0.279965469
6.212,-0.000548579,0.016200274,0.086078828,0.022639621,0.279964719
6.216,-0.000546902,0.016198732,0.086077688,0.022639152,0.279966
6.22,-0.000546165,0.016197727,0.086077148,0.022638313,0.2799665
6.224,-0.000546332,0.01619786,0.086077422,0.022638414062499997,0.279966438
6.228,-0.000546802,0.016197357,0.08607832,0.02263875,0.279966063
6.232,-0.000548176,0.016197224,0.086079734,0.022639251953124998,0.279965031
6.236,-0.000547104,0.016196485351562498,0.086079195,0.022638984,0.27996581249999997
6.24,-0.000547372,0.01619729,0.0860795,0.022638849609374997,0.279965531
6.244,-0.000546969,0.016197827,0.086079898,0.022639621,0.279965188
6.248,-0.000548176,0.016197491210937498,0.086080234,0.022639922,0.27996424999999997
6.252,-0.000549149,0.016195949,0.086080805,0.022639117,0.279963781
6.256,-0.000549886,0.016196318,0.0860805,0.022638213,0.27996306249999997
6.26,-0.000550155,0.016197827,0.086079836,0.022637609,0.279962875
6.264,-0.000549015,0.016197625976562498,0.0860795,0.022637509765624998,0.279963969
6.268,-0.000547439,0.01619615,0.086079594,0.022638078,0.2799655
6.272,-0.000548981,0.016197055664062498,0.086080734,0.022638816406249998,0.279964469
6.276,-0.000552569,0.016198665,0.08608168,0.022640225,0.279961125
6.28,-0.000550658,0.016196854,0.086080641,0.022639386718749998,0.279962563
6.284,-0.00055059,0.016195111328124998,0.0860805,0.022639822265624998,0.27996275
6.288,-0.000549652,0.016194272,0.08608,0.022639051,0.279963344
6.292,-0.000548646,0.016193334,0.086078461,0.022637072,0.279964656
6.296,-0.000548914,0.016192461914062498,0.086078391,0.022636669921874998,0.279964219
6.3,-0.000548311,0.016192094,0.086078727,0.022636637,0.279964063
6.304,-0.000547238,0.016190852539062498,0.086078727,0.022635798828124998,0.279964594
6.308,-0.000546366,0.016191255,0.086078391,0.022634424,0.27996521874999997
6.312,-0.000546433,0.016190484374999998,0.086077852,0.022633854,0.279965313
6.316,-0.000547975,0.016190585,0.086078055,0.022634727,0.279964094
6.32,-0.000549249,0.016190518,0.086078156,0.022635027,0.27996325
6.324,-0.000550222,0.016190618,0.086078258,0.022636135,0.279962938
6.328,-0.000550423,0.016189914062499998,0.086079266,0.022637543,0.279962969
6.332,-0.000551429,0.016188674,0.086079664,0.022638213,0.279962281
6.336,-0.000553675,0.016188808,0.086079898,0.02263875,0.279960375
6.34,-0.000554178,0.016188372,0.086079734,0.022639018,0.279959469
6.344,-0.000554077,0.016188372,0.086079398,0.022639219,0.279959719
6.348,-0.000554413,0.016188808,0.0860795,0.022639084,0.27996
6.352,-0.000555821,0.016187969726562498,0.086079297,0.022638615,0.27995928124999997
6.356,-0.000552569,0.016187198,0.086077453,0.022637207,0.279961406
6.36,-0.000551831,0.016185757,0.08607718,0.022637342,0.279961969
6.364,-0.000554916,0.016185187,0.08607782,0.022638113,0.279959344
6.368,-0.000554647,0.016184885,0.086077516,0.022636837890624997,0.279959781
6.372,-0.000552434,0.016183913085937498,0.086076414,0.022634424,0.27996165624999997
6.376,-0.000555351,0.016182706,0.086076141,0.022635228515624998,0.279959
6.38,-0.000556894,0.016182873,0.08607718,0.022637441,0.279957219
6.384,-0.000557128,0.016184114,0.08607668,0.022637711,0.279957406
6.388,-0.000558067,0.016184818,0.086076648,0.022638682,0.279957219
6.392,-0.000558805,0.016184315,0.086077484,0.022639285156249998,0.279956438
6.396,-0.000558536,0.016184181,0.086076852,0.022638916,0.279956531
6.4,-0.000558134,0.016183410156249998,0.086076578,0.022639318,0.27995675
6.404,-0.000558671,0.016183477,0.086077484,0.022640828124999998,0.279955969
6.408,-0.000560246,0.016183342773437498,0.086079328,0.022642572265624997,0.279954875
6.412,-0.000561152,0.01618294,0.086079594,0.022641398437499998,0.279954344
6.416,-0.000560481,0.016181565,0.08607782,0.022640425781249997,0.279954938
6.42,-0.000561219,0.016181398437499998,0.08607725,0.022640023,0.279953844
6.424,-0.000561722,0.016182639,0.086078594,0.022640996093749997,0.27995268749999996
6.428,-0.000561219,0.016182571,0.086078555,0.022640359,0.27995290624999997
6.432,-0.000561789,0.016181432,0.086077086,0.022638783,0.279952656
6.436,-0.000560179,0.016180828124999998,0.086076445,0.022637711,0.279953406
6.44,-0.000560951,0.016180291992187498,0.086076516,0.022638883,0.279952844
6.444,-0.000562962,0.016180225,0.086077148,0.022639990234374997,0.279951031
6.448,-0.00056199,0.016178884,0.086076516,0.022638783,0.279952
6.452,-0.000560984,0.016177677,0.086075008,0.022637643,0.27995349999999997
6.456,-0.00056427,0.016177308,0.086075008,0.022638582,0.279951469
6.46,-0.000564672,0.016177543,0.086075711,0.022639354,0.279950594
6.464,-0.000565376,0.016176771484374998,0.086076648,0.022640627,0.27995025
6.468,-0.00056608,0.016175464,0.08607668,0.022640459,0.279950188
6.472,-0.000566918,0.016175095,0.086076945,0.02264009,0.27994912499999997
6.476,-0.000567153,0.016175732,0.086077148,0.022640762,0.279948875
6.48,-0.000567086,0.016176034,0.086077281,0.022642738281249998,0.279948625
6.484,-0.000566248,0.016175564,0.086077148,0.022643176,0.279949656
6.488,-0.000565242,0.016175195312499998,0.086076242,0.022642639,0.27995112499999997
6.492,-0.000563867,0.016173821289062498,0.086075039,0.022641398437499998,0.279952156
6.496,-0.000563599,0.016172781,0.086073867,0.022640123,0.2799525
6.5,-0.00056484,0.016172815,0.08607393,0.022639588,0.279951969
6.504,-0.000564069,0.016172748046874998,0.086073961,0.022637843749999997,0.279953188
6.508,-0.000564337,0.016172413,0.086073867,0.022637240234374998,0.279953188
6.512,-0.000564504,0.016170367,0.086072656,0.022635766,0.279953813
6.516,-0.000565208,0.016168188476562498,0.086071414,0.022635900390624998,0.27995349999999997
6.52,-0.000565242,0.016167149,0.086070477,0.022636102,0.27995328124999996
6.524,-0.000565376,0.016166311,0.086070609,0.022637107,0.27995275
6.528,-0.000564538,0.016164769,0.086070078,0.022636604,0.279953313
6.532,-0.000561889,0.016163159,0.086069406,0.022635664062499998,0.279955094
6.536,-0.000564538,0.016162891,0.086070445,0.022636973,0.279953406
6.54,-0.00056598,0.016163092,0.086070883,0.022637609,0.27995275
6.544,-0.000565879,0.016163293,0.086071117,0.02263848,0.279953094
6.548,-0.000565577,0.016163628906249998,0.086070844,0.022638549,0.27995334374999997
6.552,-0.000565309,0.016162824,0.086070984,0.022638549,0.279953969
6.556,-0.000564504,0.016163293,0.086070844,0.022637543,0.279955
6.56,-0.000565812,0.016163729,0.08607018,0.022637240234374998,0.279953844
6.564,-0.000565812,0.016162254,0.086069273,0.022637475,0.279953563
6.568,-0.000566248,0.016160879,0.086069703,0.022637810546874998,0.279953313
6.572,-0.000567287,0.016160074,0.086070945,0.022638582,0.279952969
6.576,-0.000568192,0.016158834,0.086071617,0.022639922,0.279952438
6.58,-0.000567019,0.016157526367187498,0.086071313,0.022640895,0.279952844
6.584,-0.00056541,0.016156588,0.086071219,0.022640561,0.27995424999999996
6.588,-0.000570305,0.016156822,0.086072656,0.022642906,0.279951
6.592,-0.000570942,0.016156822,0.086072523,0.022642371,0.27995090624999996
6.596,-0.000569433,0.016156419921874998,0.086070547,0.022640324,0.279952281
6.6,-0.000566717,0.016156085,0.086069,0.022639386718749998,0.279954406
6.604,-0.000570104,0.016156118,0.086069672,0.022641096,0.279951906
6.608,-0.000569634,0.016154744,0.086069,0.02264066,0.279952375
6.612,-0.000569366,0.016154408203124998,0.086069305,0.022640627,0.279953031
6.616,-0.000570338,0.016153972656249998,0.086069703,0.022642236,0.279952406
6.62,-0.000571042,0.016154408203124998,0.086070883,0.022644047,0.279951219
6.624,-0.00057121,0.016154878,0.086071586,0.02264408,0.279950406
6.628,-0.000571948,0.016155582,0.086071078,0.022643275,0.279949969
