time,F8,F4,Fz,F3,F7
0,0.023854628906249998,0.022966213,0.059275746,0.018422451,0.018401396
0.004,0.023853891,0.022966044921874998,0.059270484374999995,0.018422518,0.018402066
0.008,0.023852281,0.022964201,0.059273097656249996,0.018423021,0.018401999999999998
0.012,0.023851175781249997,0.022962994140624998,0.059280039,0.018423055,0.018401295
0.016,0.023852014,0.022963766,0.059282351562499995,0.018423691406249998,0.01840116
0.02,0.023852248,0.022964771,0.059276417968749995,0.018423223,0.018402268
0.024,0.023852146,0.022964537,0.05927132,0.018421679687499998,0.018402535
0.028,0.023852785,0.022963833984374998,0.059274102,0.018421043,0.018402234
0.032,0.023853152,0.022963666,0.059281312499999995,0.018420539062499998,0.018402703
0.036,0.023852146,0.022963597656249998,0.059283054687499996,0.018421076,0.018403977
0.04,0.023850438,0.022963633,0.059277085937499994,0.018421781249999998,0.018404781
0.044,0.023849768,0.02296323,0.059272359,0.018421613,0.018404916015624998
0.048,0.023849732,0.022962459,0.059275175781249995,0.018420908,0.018404313
0.052,0.023849801,0.022961889,0.059280136718749994,0.018420406,0.018403977
0.056,0.023849531,0.022961855,0.059282016,0.018420673828124998,0.018404412
0.06,0.023848963,0.022961184,0.059276785,0.018420539062499998,0.01840676
0.064,0.023849297,0.022960145,0.059270382812499994,0.0184195,0.018407465
0.068,0.023848458984374998,0.022958502,0.059271523437499994,0.018419533203124998,0.018407699
0.072,0.023848525,0.022957496093749998,0.059276754,0.018420305,0.018406525390624998
0.076,0.023848795,0.022958301,0.059277793,0.018420338,0.018407465
0.08,0.023848693,0.022959307,0.059272563,0.018420205078124998,0.018408604
0.084,0.023848894531249998,0.022958838,0.059267195,0.018419769531249998,0.018408939
0.088,0.023848927734374997,0.022957463,0.059268539,0.0184194,0.018408101562499998
0.092,0.023848324218749998,0.02295716,0.059274136718749995,0.018419533203124998,0.018408637
0.096,0.023848795,0.022957328,0.059275711,0.018419836,0.018409777
0.1,0.023848359,0.022957563,0.059269343749999995,0.018419869,0.018410213
0.104,0.023847453124999998,0.022957396,0.059262703124999996,0.018419064453124998,0.018410281
0.108,0.023846882812499998,0.022956658203124997,0.059264047,0.018418494,0.018410482
0.112,0.023845978515624998,0.022955283,0.05926941,0.018419131,0.018410348
0.116,0.0238441,0.022954814,0.059272191,0.018420305,0.018412225
0.12,0.023843094,0.022955418,0.059267734,0.01842074,0.018414404
0.124,0.023842123,0.022955115,0.059261933593749996,0.018419434,0.018414639
0.128,0.023842255859374998,0.022954478515624998,0.059263742187499996,0.018417959,0.018413197
0.132,0.023841619,0.022953674,0.059270348,0.018417757812499998,0.018412729
0.136,0.023841586,0.022952736328124997,0.059273332,0.018417959,0.018413666
0.14,0.023840781249999998,0.022952266,0.059267867,0.01841732,0.018414873
0.144,0.023838937499999997,0.022952434,0.059262336,0.018416751953124998,0.018413498
0.148,0.023837094,0.022951293,0.059264613281249996,0.01841665,0.018412124999999998
0.152,0.023835686,0.022950791,0.059270719,0.018416113,0.018411521
0.156,0.023836557,0.022951932,0.059272226562499995,0.01841702,0.018411051
0.16,0.023837763671874998,0.022952299,0.059266258,0.018417623046874998,0.01841132
0.164,0.023838232421874998,0.022952064,0.059261465,0.01841702,0.018411990234374998
0.168,0.023837428,0.022952266,0.059264348,0.018416684,0.018409477
0.172,0.023836256,0.022952902343749998,0.059271387,0.01841665,0.018405955078124998
0.176,0.023835316406249998,0.022953842,0.059274504,0.018416584,0.018408939
0.18,0.023833941,0.022953908203124998,0.059270082,0.01841665,0.018413834
0.184,0.023833975,0.022952971,0.059265285,0.018415879,0.018414740234374997
0.188,0.023834914,0.0229524,0.059267363,0.018414705,0.018413398
0.192,0.023834813,0.022952132812499998,0.059272996093749995,0.018413834,0.018411453124999998
0.196,0.023834175781249998,0.022951896484374998,0.059275512,0.018414102,0.018411621
0.2,0.023833203,0.022952601562499998,0.059270484374999995,0.018414740234374997,0.01841323
0.204,0.023832398,0.022953305,0.059264882812499996,0.018415074,0.018413332
0.208,0.023832398,0.022952334,0.059266023437499996,0.018413432,0.018411654
0.212,0.023832398,0.022952266,0.059270316406249995,0.018412124999999998,0.018410548828124998
0.216,0.023831561,0.022952232,0.059271555,0.018412124999999998,0.018411287
0.22,0.023829683593749998,0.022951293,0.059266792968749996,0.018411756,0.018411488
0.224,0.023828611,0.022950188,0.059261730468749996,0.018410516,0.018411252
0.228,0.023828242187499998,0.022950019531249997,0.059263808593749995,0.018409978515624998,0.01841132
0.232,0.023827068,0.022949248,0.059270816406249996,0.018410381,0.018412191
0.236,0.023826834,0.022949851562499998,0.059275043,0.018411822,0.018414169921874998
0.24,0.023827203124999998,0.022950725,0.059271085937499995,0.018413599609374998,0.018413464843749998
0.244,0.023826465,0.022949518,0.059265621,0.018412861,0.018410482
0.248,0.023826834,0.022947437499999997,0.059266727,0.018411252,0.018413130859374998
0.252,0.023827236328124998,0.022945729,0.059272629,0.018410548828124998,0.018413498
0.256,0.023827605,0.022945729,0.059275378906249995,0.018410648,0.018415344
0.26,0.023827303,0.022945729,0.05927132,0.018410548828124998,0.018416918
0.264,0.023827035,0.022945962890624998,0.059266292968749995,0.018409978515624998,0.018416717
0.268,0.023827068,0.02294623,0.059268203124999995,0.018409711,0.018414941
0.272,0.023827404,0.022945929687499998,0.059274304687499994,0.018409477,0.018412996
0.276,0.023827572,0.022945962890624998,0.059277824,0.018409912,0.018413332
0.28,0.023827101562499998,0.022946566,0.059273433593749994,0.018410717,0.018413768
0.284,0.023826432,0.022946734,0.059269242187499994,0.018410951,0.018414068
0.288,0.023826129,0.022946063,0.059271992,0.018410482,0.018413130859374998
0.292,0.023826867,0.022945459,0.059277625,0.018410582,0.018411554687499998
0.296,0.023828242187499998,0.022945359,0.059280273437499996,0.018410984374999998,0.018412560546874998
0.3,0.023828677734374998,0.02294499,0.059275175781249995,0.018411387,0.018413599609374998
0.304,0.023828578,0.022944386718749998,0.059269242187499994,0.018410816,0.018412729
0.308,0.023828443,0.022943347656249998,0.059271085937499995,0.018410146,0.018411822
0.312,0.023828677734374998,0.022943380859374998,0.059276617,0.018410314,0.018412527
0.316,0.023827203124999998,0.022943146,0.059278695,0.018411287,0.018412963
0.32,0.023825761718749998,0.022943582,0.05927377,0.018411354,0.018414639
0.324,0.023825459,0.02294442,0.059269441,0.018412124999999998,0.018416852
0.328,0.023824822,0.022944689,0.059273062499999994,0.01841266,0.018417455
0.332,0.023824688,0.022945225,0.059280844,0.018412828,0.018417187499999998
0.336,0.023823749999999998,0.022944822265624998,0.05928527,0.018413264,0.018417221
0.34,0.023823348,0.02294442,0.059281277343749994,0.018413566406249998,0.018417221
0.344,0.023823111,0.022943816406249998,0.059275781,0.018412828,0.018415846
0.348,0.023822342,0.022943314,0.059277289062499995,0.018412359,0.018414572
0.352,0.023822039062499998,0.022942979,0.059283895,0.018412359,0.018415175781249998
0.356,0.023822408,0.022943449,0.059286976562499996,0.018412458984374998,0.018416785
0.36,0.02382224,0.02294499,0.059282051,0.018412795,0.018418326
0.364,0.023822140624999998,0.022946164,0.059276082031249996,0.018412828,0.018418125
0.368,0.023822307,0.02294623,0.059277422,0.018412092,0.018415813
0.372,0.023823078124999997,0.022945494140624998,0.059284464843749995,0.018411990234374998,0.018414639
0.376,0.023823179687499998,0.022945392578124998,0.059288789,0.018412762,0.018415746093749998
0.38,0.023821973,0.022945125,0.059283258,0.018412293,0.018415645
0.384,0.0238209,0.022944488281249998,0.059276988,0.018411152,0.018414639
0.388,0.023820128906249998,0.022942645,0.059279468749999994,0.018410615,0.018414136718749998
0.392,0.023819859,0.022941068,0.059286074,0.018410314,0.018413734
0.396,0.023819895,0.022941973,0.059288722656249994,0.01841018,0.018413900390624998
0.4,0.023819895,0.022942744,0.05928423,0.018409441406249998,0.01841484
0.404,0.023820564453124998,0.022942810546874998,0.059278328124999995,0.018408471,0.018415813
0.408,0.023820498,0.022942074,0.059279637,0.018408101562499998,0.018415309
0.412,0.023820462890624998,0.022942006,0.059285738,0.018408101562499998,0.018415509765624997
0.416,0.023819895,0.022941804687499998,0.059287715,0.018408604,0.018416617187499998
0.42,0.023818451171874998,0.022942074,0.059282789,0.018409174,0.018417488281249998
0.424,0.023816675781249998,0.022941303,0.059276785,0.018408972656249998,0.018417557
0.428,0.023816105468749998,0.022941035156249998,0.059277691,0.01840857,0.018418058593749998
0.432,0.023815970703124998,0.022941402,0.059284129,0.018409107421874998,0.01841893
0.436,0.023814964843749998,0.022941335937499998,0.059286476562499996,0.018409711,0.01841893
0.44,0.023813926,0.022940330078124998,0.059280875,0.018410213,0.018420037
0.444,0.023812686,0.022938787109374997,0.059274406249999995,0.018410045,0.018419199218749998
0.448,0.023811143,0.022938352,0.059274574,0.018408033,0.018417689
0.452,0.023809668,0.022937379,0.059279367187499994,0.018406592,0.018417689
0.456,0.023809601562499998,0.022937547,0.059281914062499996,0.018406895,0.018417992
0.46,0.0238094,0.022937648,0.059276851562499996,0.018407195,0.018417521484374998
0.464,0.023808561,0.022936709,0.059270414,0.018406592,0.018417689
0.468,0.023807689,0.022935502,0.059270348,0.018405384765624998,0.018417119
0.472,0.023807521,0.022934664,0.059274672,0.018404748,0.018416751953124998
0.476,0.023808158,0.022935,0.059277457031249994,0.018405418,0.018416482421874998
0.48,0.023807992187499998,0.022934598,0.05927273,0.018405453,0.018416918
0.484,0.023807086,0.022933559,0.059266023437499996,0.018403676,0.018415476562499998
0.488,0.023805645,0.022932316,0.059266292968749995,0.018402066,0.018414639
0.492,0.023804807,0.022931712890624997,0.059272023437499995,0.018402268,0.018414807
0.496,0.023804135,0.022932016,0.059275781,0.018404078,0.018416885
0.5,0.023803096,0.022932016,0.059271387,0.018404916015624998,0.018417389
0.504,0.023802359,0.022930707,0.059264949218749995,0.018404211,0.018415476562499998
0.508,0.023801354,0.022929064,0.059265453,0.018402938,0.018414068
0.512,0.023800045,0.022927389,0.059271152343749994,0.018402535,0.018413566406249998
0.516,0.023799006,0.022926281,0.059274172,0.018402568,0.018412627
0.52,0.023798402,0.022927757812499998,0.059270281249999994,0.0184024,0.018413936
0.524,0.023796492,0.022927824,0.059264414,0.018401229,0.018415107
0.528,0.023795385,0.022927891,0.059265688,0.018400355,0.018414068
0.532,0.023795351562499997,0.022927287,0.059271723,0.018400021484374997,0.018412225
0.536,0.023795318359374998,0.022926046874999998,0.059275445312499994,0.018399619,0.018413164062499997
0.54,0.023795721,0.022926248,0.059271758,0.018400757812499998,0.01841608
0.544,0.02379582,0.022925947,0.059265488,0.018401027343749998,0.01841635
0.548,0.02379552,0.022924539,0.059266292968749995,0.018400557,0.018412963
0.552,0.023796559,0.022924035156249998,0.059271253906249995,0.018399417968749998,0.018409141
0.556,0.023796927734374997,0.022923098,0.059272191,0.018398244,0.018406291
0.56,0.023796156,0.022923298828124997,0.059266191406249995,0.018397304687499998,0.018406928
0.564,0.023795183593749998,0.022924035156249998,0.059260054687499994,0.018396568,0.018408537109374998
0.568,0.023794078,0.022923197,0.059261965,0.018396367,0.018408705
0.572,0.023794145,0.022922560546874998,0.059268371093749994,0.018397304687499998,0.018406021
0.576,0.023794078,0.022921857,0.059270684,0.018397304687499998,0.018403072
0.58,0.023793139,0.022921219,0.059265218749999994,0.018396701,0.018405754
0.584,0.023792971,0.022919811,0.059258715,0.018395059,0.018406960937499998
0.588,0.023792769531249997,0.022917632812499998,0.059259652,0.01839298,0.018406459
0.592,0.023792066,0.022917162,0.059266828,0.018392677734374998,0.018406459
0.596,0.023790724609374998,0.022916559,0.059270984374999995,0.018392008,0.018405855
0.6,0.023789718749999997,0.022916459,0.059266695,0.018391471,0.018405654
0.604,0.023789249999999998,0.022916056640624998,0.059260996,0.018390867,0.018405787
0.608,0.023788848,0.022915384765624998,0.059262805,0.018390332031249998,0.018404682
0.612,0.023788779,0.022914916,0.059269039,0.018390365,0.018404246
0.616,0.023788211,0.022914547,0.059271824,0.018390533,0.018405184
0.62,0.023787037,0.022914615234374998,0.059267027,0.018391035,0.018405418
0.624,0.023786467,0.022914213,0.059260355,0.018390800781249998,0.018405519531249998
0.628,0.023785998,0.022913541,0.059261094,0.018389191406249998,0.018403808593749998
0.632,0.023785461,0.022912268,0.059265988281249994,0.01838785,0.018400658
0.636,0.023785395,0.022911967,0.059269109,0.018387582,0.018398310546874998
0.64,0.02378432,0.02291324,0.05926552,0.018387414,0.018400725
0.644,0.023781939453124998,0.022914178,0.059261262,0.018387246,0.018402436
0.648,0.02377899,0.022912167968749998,0.059262167968749994,0.018385838,0.018399652
0.652,0.023778219,0.02291267,0.059269207,0.018386576,0.018398244
0.656,0.023778285,0.022913541,0.059272898,0.01838708,0.018398880859374998
0.66,0.023777414,0.022914044921874998,0.059268637,0.018385705078124998,0.018396533
0.664,0.023777314,0.022914078124999997,0.059262937499999994,0.018384867,0.018396265624999998
0.668,0.023776744,0.02291267,0.059263441,0.018383994,0.018394656
0.672,0.023776542968749998,0.022912570312499998,0.05926857,0.018383895,0.018393683593749998
0.676,0.023776609,0.02291267,0.059272191,0.018385068,0.018393551
0.68,0.023775906,0.022912033203124998,0.059267734,0.018385033203124998,0.018394119140624998
0.684,0.023774396484374998,0.022911094,0.059262101562499996,0.018383895,0.018393314
0.688,0.023772787,0.022909184,0.059263004,0.018382721,0.018392143
0.692,0.023771513671874998,0.022908848,0.059269309,0.018383492,0.018394521
0.696,0.023771211,0.022911396,0.059274672,0.018384832,0.018396869140624997
0.7,0.023770641,0.022911931640624997,0.059271824,0.018384799,0.018396400390624998
0.704,0.02377034,0.022911061,0.059266762,0.018384063,0.018397373
0.708,0.023769602,0.022908244,0.059267062499999995,0.018382754,0.018395797
0.712,0.023768998,0.022904891,0.059271656,0.018381145,0.018393148
0.716,0.023769367187499998,0.022904322,0.059275445312499994,0.018381279,0.018391104
0.72,0.0237694,0.022905092,0.059272191,0.018381111328124998,0.01839117
0.724,0.02376843,0.022904992,0.059266324,0.018379469,0.018393215
0.728,0.023768193,0.022904053,0.059266460937499994,0.018378195312499998,0.018391236328124998
0.732,0.023767826,0.02290308,0.059271488,0.018377355,0.018389459
0.736,0.023767925781249997,0.022903752,0.059275007812499995,0.018377121,0.018389660156249998
0.74,0.023767021484374998,0.022904322,0.059271219,0.01837692,0.018390264
0.744,0.023764740234374998,0.022904421874999997,0.059265586,0.018376686,0.018389158
0.748,0.023762092,0.022904758,0.059267164062499995,0.018375914,0.018388689
0.752,0.023760549,0.022903551,0.059274035156249995,0.018376048828124998,0.018387447
0.756,0.023760885,0.022903115,0.059279199218749995,0.018376183593749998,0.018388521
0.76,0.023760584,0.022902779,0.059276249999999996,0.018376953124999998,0.018389594
0.764,0.02376065,0.022902645,0.059270516,0.018377189453124998,0.0183906
0.768,0.023759912,0.022901908203124998,0.059271422,0.018376652343749997,0.018389191406249998
0.772,0.023759812499999998,0.02290117,0.059276953,0.018376451,0.018388018
0.776,0.023760482,0.022900633,0.059280039,0.018377256,0.018388086
0.78,0.02376132,0.022900800781249998,0.059276016,0.018377424,0.018387348
0.784,0.023760716796874998,0.022900800781249998,0.059269813,0.018376686,0.018385234
0.788,0.023758537,0.02289926,0.059269578,0.018375545,0.018385167968749998
0.792,0.023757800781249998,0.02289842,0.059275445312499994,0.018375511718749998,0.018389393
0.796,0.023757029,0.022897951,0.059279902343749996,0.018376016,0.018390666015624998
0.8,0.023756594,0.022897717,0.059276516,0.018377054687499998,0.0183906
0.804,0.023755252,0.022897684,0.059271855468749995,0.018377557,0.018390701
0.808,0.023754816,0.022897146,0.059273668,0.018377289,0.01838993
0.812,0.023755051,0.022897549,0.059278965,0.018377021,0.018388924
0.816,0.023756023,0.022898218749999998,0.059282117,0.018376752,0.018388521
0.82,0.023757533,0.022897852,0.059278094,0.018376115,0.01838785
0.824,0.023757867,0.022897047,0.059272292968749994,0.018375545,0.018385939
0.828,0.023758572,0.022896945,0.059273566,0.018374941406249998,0.018384564
0.832,0.023759611,0.022896979,0.059279132812499996,0.018374271,0.018382285
0.836,0.023759912,0.022896878906249998,0.059282453124999995,0.018375177734374998,0.01838282
0.84,0.023758873,0.022896443359374997,0.059278395,0.018374941406249998,0.018383057
0.844,0.023758269531249997,0.022895369,0.05927273,0.01837407,0.018381814
0.848,0.023758939,0.022894699,0.059273734,0.018372998,0.018380240234374998
0.852,0.023759410156249997,0.022894363,0.059280207,0.018372428,0.018379436
0.856,0.023759543,0.022893861328124997,0.05928473,0.018372025390624998,0.018378799
0.86,0.023760047,0.022893627,0.059280809,0.018372326171874998,0.018379201171874998
0.864,0.023759107,0.02289376,0.059273566,0.018372428,0.018378932
0.868,0.023757131,0.022893291015624997,0.0592735,0.018371890624999998,0.018378630859374998
0.872,0.023756594,0.022893057,0.059279367187499994,0.018371086,0.018378630859374998
0.876,0.023757197,0.022894396,0.059284160156249995,0.018372428,0.018379402
0.88,0.023757095703124998,0.022895705,0.059281883,0.018373332,0.018381045
0.884,0.023755889,0.022896609374999998,0.059276281,0.018373434,0.018382486
0.888,0.023754516,0.022896342,0.059277121093749996,0.01837283,0.018381613
0.892,0.023754414,0.022894967,0.059284129,0.018372729,0.018379367
0.896,0.023753609374999998,0.022894498,0.059288688,0.018372929687499998,0.018380105468749998
0.9,0.02375267,0.022894699,0.059285168,0.018373232,0.018381145
0.904,0.023752268,0.022895269531249998,0.059278629,0.018373635,0.018379938
0.908,0.023751129,0.022895102,0.059279265624999994,0.018373031249999998,0.018379166
0.912,0.023750424,0.022894967,0.059285335937499996,0.018372395,0.018378228515624997
0.916,0.023750492,0.022894531,0.059288688,0.018372460937499998,0.018377859
0.92,0.023751060546874998,0.022893961,0.059284664,0.018372729,0.018378932
0.924,0.023751564,0.022893961,0.059278527,0.018372965,0.018378799
0.928,0.023752167968749998,0.022893627,0.059278461,0.018372428,0.018377424
0.932,0.023752603515624998,0.022892787,0.059283660156249994,0.018371556640624998,0.018376652343749997
0.936,0.023753912109374997,0.022892720703124998,0.059288418,0.018371254,0.018376988
0.94,0.023754347656249997,0.022893023,0.059284632812499995,0.018371521,0.018378598
0.944,0.023754078124999998,0.022892486,0.059277625,0.018371355,0.018378799
0.948,0.023754113,0.022892084,0.059276851562499996,0.018370617,0.018377926
0.952,0.023752939,0.022891648,0.059281816,0.018369813,0.018377691
0.956,0.023751363,0.022892117187499998,0.059286308593749996,0.018370215,0.018377391
0.96,0.023750492,0.022892150390624998,0.05928282,0.018370986,0.018378262
0.964,0.023749720703124998,0.022892922,0.059277488,0.018370986,0.018377557
0.968,0.023748949,0.022892084,0.059278461,0.018370316,0.018375947265624998
0.972,0.023749084,0.022891447,0.059285637,0.018370583984374998,0.018376183593749998
0.976,0.023749585937499998,0.022891681640624998,0.059291305,0.018371824,0.018376686
0.98,0.023749922,0.022892184,0.059288152,0.01837226,0.018377223
0.984,0.023750223,0.022892219,0.059282855,0.018371254,0.01837635
0.988,0.023750624999999997,0.022892251953124998,0.059282285156249996,0.018370248,0.018375244
0.992,0.023750826,0.022891514,0.05928775,0.018370717,0.018374338
0.996,0.023749787,0.022891547,0.05929184,0.018371086,0.018375211
1,0.023748916,0.022891748,0.059288183593749995,0.018371824,0.018377154
1.004,0.023748646,0.022891781,0.059283222656249995,0.018372059,0.018378598
1.008,0.023748848,0.022891748,0.059284964843749996,0.018372059,0.018378764
1.012,0.023749352,0.022891916,0.059292374999999994,0.018372428,0.018378664062499998
1.016,0.02374982,0.022891615,0.059296367,0.018373332,0.018376787
1.02,0.023751262,0.02289118,0.059291941,0.018372729,0.018374775
1.024,0.023752436,0.022891111328124998,0.059285168,0.018371221,0.018377355
1.028,0.023752939,0.022891313,0.059286039,0.018369578124999997,0.018377087890624998
1.032,0.023752939,0.022890844,0.059291707031249995,0.018369477,0.018376854
1.036,0.023752906,0.022890174,0.059296266,0.018369914,0.018377021
1.04,0.023752537,0.022890105468749998,0.059292410156249996,0.018369914,0.018374941406249998
1.044,0.023750895,0.022889736,0.059286171874999995,0.018368605,0.018374941406249998
1.048,0.023750291015624998,0.022889436,0.059286574,0.018368068,0.018376283
1.052,0.023749720703124998,0.022890174,0.059293414062499994,0.018368203,0.018375277
1.056,0.023749922,0.022891012,0.059299016,0.018368908,0.01837625
1.06,0.023749889,0.022891279296874997,0.059296535156249996,0.018369311,0.018376619140624998
1.064,0.023749889,0.022891514,0.059292207031249995,0.018369878906249998,0.018375848
1.068,0.023750492,0.022889268,0.059292879,0.018369544921874998,0.018375914
1.072,0.023750726562499998,0.022886719,0.059298578124999994,0.018368371,0.018376752
1.076,0.023752268,0.022888865,0.059303707,0.018370316,0.018378295
1.08,0.023752436,0.022888598,0.059300559,0.01837065,0.018375344
1.084,0.023752871,0.022887759765624998,0.059294386718749995,0.018369980468749998,0.018374607421874998
1.088,0.023751865,0.022887087890624998,0.059294289,0.018368908,0.018375412
1.092,0.023751463,0.022886216796874997,0.059300355468749996,0.018368639,0.018376719
1.096,0.023750624999999997,0.022885547,0.059304343749999995,0.018368035,0.018376082031249998
1.1,0.023749854,0.022886553,0.059301059,0.018368236,0.018375277
1.104,0.023749150390624998,0.02288692,0.059293886718749994,0.018368338,0.018376719
1.108,0.023748078,0.02288749,0.059293648,0.01836874,0.018376385
1.112,0.023749048828124997,0.022886753906249998,0.059298613281249996,0.018368305,0.018373734
1.116,0.023750223,0.022886048828124998,0.059303977,0.018368305,0.01837682
1.12,0.023750658,0.022886586,0.059301730468749994,0.018369109374999998,0.018377424
1.124,0.023749318,0.022886016,0.059296367,0.018369311,0.018378932
1.128,0.023748681640624998,0.02288558,0.059296062499999996,0.018368873046874998,0.018382285
1.132,0.023749015624999998,0.022886082031249998,0.059301226562499997,0.018368707,0.018382486
1.136,0.023749318,0.022886854,0.059306523437499994,0.018368873046874998,0.018380810546874998
1.14,0.023749285156249998,0.022888126953124997,0.059303406249999996,0.018368941,0.018382988
1.144,0.02374848,0.022889234374999998,0.059296133,0.018368506,0.0183849
1.148,0.023747877,0.022889502,0.059293347656249995,0.018367801,0.018383625
1.152,0.023747205,0.022887926,0.059298949218749994,0.018367968749999998,0.018384263671874998
1.156,0.023747675781249998,0.022887926,0.059304914,0.018368807,0.018386342
1.16,0.023748714843749998,0.022887592,0.059301094,0.018368572,0.018384832
1.164,0.023749486,0.022886887,0.059294957,0.018367902,0.018383895
1.168,0.023748982,0.022885145,0.059293617187499995,0.018366627,0.018384867
1.172,0.023747943,0.022885713,0.059299753906249995,0.018366225,0.018385939
1.176,0.023746938,0.022887021,0.059303809,0.018366225,0.0183849
1.18,0.023747138671874998,0.022888262,0.059300421874999995,0.018365219,0.018383559
1.184,0.023746066,0.022890072,0.059295023,0.018365621,0.018385102
1.188,0.02374516,0.022890174,0.059295863,0.01836599,0.018384832
1.192,0.023746267578124997,0.02289034,0.059302199,0.018366125,0.01838309
1.196,0.023745898,0.02288873,0.059305585937499995,0.01836599,0.018381613
1.2,0.023745562499999998,0.022888162,0.059301292968749995,0.018365654,0.018382988
1.204,0.023745093749999998,0.022888564,0.059293785,0.018365521484374998,0.018385269531249998
1.208,0.023742947265624998,0.022887725,0.059293449218749995,0.018365386718749998,0.018385637
1.212,0.023741439,0.022886887,0.059297707,0.018366225,0.018385838
1.216,0.023740365234374998,0.022887256,0.059301730468749994,0.018366392578124998,0.018386678
1.22,0.023739025390624998,0.022888496,0.059298445312499996,0.018365855468749998,0.018388588
1.224,0.023737986,0.022888765624999998,0.059291371093749996,0.018365354,0.018390701
1.228,0.023737281,0.022887624999999998,0.059289828,0.018364849609374997,0.018390800781249998
1.232,0.023736912109374998,0.022886753906249998,0.059293246093749995,0.018363945312499998,0.018389594
1.236,0.023736645,0.022887021,0.059297539062499995,0.018363240234374998,0.018388252
1.24,0.023734968749999998,0.02288625,0.05929298,0.018363509765624998,0.018390633
1.244,0.023734164,0.022886385,0.059285738,0.018363006,0.018391572
1.248,0.023733828,0.022887121,0.059283258,0.018361699,0.018389326171874998
1.252,0.023733124999999997,0.022886418,0.059286711,0.018361096,0.018388387
1.256,0.023732654,0.022885881,0.059290531,0.018361063,0.018392041
1.26,0.023732219,0.022885042968749998,0.059287379,0.018362201,0.018393918
1.264,0.023732756,0.022884505859374998,0.059282316,0.018362168,0.018396332
1.268,0.023730777,0.022883634765624997,0.059280339843749995,0.018360189,0.018396232
1.272,0.02372843,0.022883031249999998,0.059285602,0.018359486,0.018395863
1.276,0.023726888671874998,0.022881488281249997,0.059289257812499996,0.01835915,0.018398277
1.28,0.023725949,0.022881221,0.05928584,0.01835942,0.018400926
1.284,0.023725078,0.022880852,0.059278094,0.018359117,0.018401898437499998
1.288,0.023724339843749997,0.022879712890624997,0.059277121093749996,0.018359252,0.018401529
1.292,0.023722395,0.022879679687499998,0.059282551,0.018359688,0.018401763671874998
1.296,0.023722229,0.022880383,0.059287281,0.018360861,0.018402602
1.3,0.023723938,0.022880785,0.059285300781249994,0.018360994,0.018404279
1.304,0.02372035,0.022879544921874998,0.059277691,0.018360458984374998,0.0184024
1.308,0.023719545,0.022877130859374997,0.059276754,0.018358916,0.018400088
1.312,0.023719712890624998,0.022875621,0.059280339843749995,0.018358213,0.018401328124999998
1.316,0.023719377,0.022874885,0.059284129,0.01835848,0.018403607
1.32,0.02371807,0.022874984374999997,0.059279637,0.018358648,0.018405855
1.324,0.023717064,0.02287475,0.05927273,0.018358279,0.018405016
1.328,0.023716259765624997,0.022873207,0.059270582,0.01835791,0.018403643
1.332,0.023714785156249998,0.022871564,0.059275746,0.018358949,0.018402568
1.336,0.023712572,0.022870525,0.05927977,0.01835952,0.018403373046874998
1.34,0.023712101562499997,0.022871498046874997,0.059276316406249994,0.018360156,0.018406559
1.344,0.023711599609374998,0.022872135,0.059268101562499995,0.018359586,0.018404279
1.348,0.023709486328124998,0.022871297,0.059266191406249995,0.018359183593749998,0.018403273
1.352,0.023707676,0.022870291,0.059271422,0.018358781249999997,0.018400592
1.356,0.023706066,0.022869285,0.059276316406249994,0.018358177734374998,0.018399551
1.36,0.023705664,0.022869117,0.0592735,0.018358682,0.018401965
1.364,0.023704357,0.022868279,0.05926666,0.01835858,0.018402333984374998
1.368,0.023703051,0.022866805,0.059264113281249996,0.018358011718749997,0.018402602
1.372,0.02370248,0.022864859374999998,0.059268371093749994,0.018357072,0.018403004
1.376,0.023701742,0.022863016,0.059272594,0.018356502,0.018398982421874998
1.38,0.023699998,0.022862311,0.059269309,0.018356637,0.018399016
1.384,0.023697551,0.022862211,0.05926257,0.018356971,0.018399484
1.388,0.023698289,0.022861641,0.05926143,0.018356805,0.018397740234374998
1.392,0.023696343749999998,0.022861506,0.05926743,0.018357072,0.018397304687499998
1.396,0.0236945,0.02285983,0.059271453,0.018356938,0.018400423828124998
1.4,0.023694635,0.022858992,0.059269109,0.018357475,0.018403072
1.404,0.023693596,0.022856377,0.059261766,0.018356703,0.018402904296874998
1.408,0.023692287109374998,0.02285507,0.059260492,0.018356535,0.018401799
1.412,0.023690746,0.02285299,0.059265891,0.018356703,0.018400892578124998
1.416,0.023689404296874998,0.02285108,0.059270887,0.018356033,0.018399417968749998
1.42,0.023688566,0.022851516,0.059268136718749996,0.018356568,0.01840049
1.424,0.023688063,0.022851414,0.059260996,0.018356066,0.018400557
1.428,0.023687492,0.022851281249999997,0.059259550781249996,0.01835543,0.018398545
1.432,0.023686855,0.022850140624999998,0.059263172,0.018354255859374998,0.018397641
1.436,0.023687057,0.022849671874999998,0.059267699,0.018354793,0.018399886718749998
1.44,0.023687962890624997,0.02285051,0.059265387,0.018355396484374998,0.01840049
1.444,0.023687191,0.022850811,0.059259550781249996,0.018355127,0.01839858
1.448,0.023686218749999998,0.022850845703124997,0.059259082,0.018354457,0.018397304687499998
1.452,0.023686621,0.022850107421874998,0.059265184,0.018354121,0.018398914
1.456,0.023687224609374998,0.022849738,0.059270984374999995,0.018354390624999998,0.018399451171874998
1.46,0.023687125,0.022850174,0.059268875,0.01835449,0.01839858
1.464,0.023687057,0.022849336,0.059262672,0.018354926,0.018398947
1.468,0.023686555,0.022848666015624998,0.05926116,0.018354322,0.018399751953124998
1.472,0.023685246093749997,0.022847794921874998,0.059266594,0.018354557,0.018400892578124998
1.476,0.023685447,0.022848398,0.059269914,0.018354959,0.018400725
1.48,0.02368518,0.022849504,0.059266828,0.018354893,0.018399719
1.484,0.023684375,0.022849269531249997,0.059260594,0.018353752,0.018399484
1.488,0.023683234374999997,0.022849303,0.059258883,0.018352479,0.018397874999999998
1.492,0.023681424,0.022848834,0.059263207031249994,0.018351641,0.018396298828124998
1.496,0.023680720703124998,0.022848465,0.059268136718749996,0.018352043,0.018395125
1.5,0.023679379,0.022848967,0.059266695,0.018352545,0.018395059
1.504,0.023677938,0.022848465,0.059260426,0.018351607,0.018396568
1.508,0.023676595703124997,0.022847156,0.059259386718749994,0.018351205,0.018399484
1.512,0.023675826171874997,0.022846721,0.059264918,0.018352277,0.018400592
1.516,0.023676463,0.022847023,0.059270348,0.018353484,0.018398646
1.52,0.023675222656249998,0.022847224609374998,0.059267398,0.018353148437499998,0.018399484
1.524,0.023674685546874998,0.02284642,0.059259988281249995,0.018351574,0.018401597656249997
1.528,0.023675791,0.022845246,0.059257910156249996,0.018350299,0.018400757812499998
1.532,0.023674986328124998,0.022843871,0.05926257,0.018349629,0.01839992
1.536,0.023673947,0.022844173828124998,0.059267598,0.018349863,0.018399049
1.54,0.023673881,0.02284434,0.059264715,0.018349863,0.018401697
1.544,0.023674550781249998,0.022844307,0.059258613,0.018349091796874998,0.018402234
1.548,0.023672305,0.022843603515624998,0.059256902343749994,0.018347684,0.018402938
1.552,0.023671869,0.022842496093749998,0.059261230468749995,0.018346008,0.018400892578124998
1.556,0.023673043,0.022842462890624998,0.059265253906249996,0.018346008,0.01839992
1.56,0.023674115234374998,0.022842295,0.059263140624999995,0.018345672,0.018399652
1.564,0.023673914,0.022841156249999998,0.059255964843749995,0.018346109,0.01839982
1.568,0.023674283,0.022841490234374998,0.059254488281249997,0.018345873,0.018401229
1.572,0.02367435,0.022840619140624997,0.059259453,0.018344632812499997,0.01840116
1.576,0.023674719,0.022841121,0.059263879,0.018344332,0.018400189
1.58,0.023674316,0.022841893,0.059261398437499994,0.018343695312499998,0.018399417968749998
1.584,0.023672809,0.022841559,0.059254121,0.018343258,0.018399217
1.588,0.023671602,0.022840451171874998,0.059251508,0.018342152343749998,0.018398076
1.592,0.023671602,0.022839109,0.059256902343749994,0.018341246,0.018398412109374998
1.596,0.023672004,0.022838574218749998,0.059260895,0.01834108,0.018398713
1.6,0.023671568,0.02283807,0.059258715,0.018341314,0.018399551
1.604,0.023670863,0.022837232,0.059250969,0.018340777,0.018399686
1.608,0.023669656,0.022836025,0.059249426,0.018340039,0.018398545
1.612,0.023668515624999997,0.022834014,0.059254824218749995,0.018338999999999998,0.018398211
1.616,0.023668248,0.022833947265624998,0.059260121,0.018338095703124998,0.018397874999999998
1.62,0.023668248,0.022834851562499998,0.059258344,0.018337693,0.018397304687499998
1.624,0.02366741,0.022835355,0.059252476562499996,0.018338297,0.018398814
1.628,0.023665666,0.022834752,0.05925127,0.018338063,0.018399417968749998
1.632,0.023664124999999998,0.02283368,0.059255195312499995,0.018336855,0.018398043
1.636,0.023663888671874998,0.022833845703124998,0.059260727,0.018337861,0.018399518
1.64,0.023663387,0.022833914,0.059259754,0.0183389,0.018402234
1.644,0.023663285156249998,0.022834182,0.059254793,0.018339369,0.018401061
1.648,0.023661107421874997,0.022833845703124998,0.059251874999999996,0.01833927,0.018398746093749998
1.652,0.023660671874999997,0.022832674,0.059256434,0.018339033,0.01839801
1.656,0.023661509765624998,0.022831935546874998,0.059260121,0.018338396,0.018398310546874998
1.66,0.023660201,0.0228316,0.059258144531249994,0.01833833,0.018399217
1.664,0.023658727,0.022831098,0.059252445,0.018338162,0.018400926
1.668,0.023658459,0.022829890624999998,0.059250300781249994,0.018337324,0.018399217
1.672,0.023659564,0.022829018,0.059254992187499994,0.018336252,0.018394388671874998
1.676,0.023659699,0.022828381,0.059259820312499996,0.01833585,0.018393551
1.68,0.023657688,0.022829656,0.059259015624999994,0.018336988281249997,0.018396568
1.684,0.023656345703124998,0.022829387,0.059252309,0.018336018,0.018396970703124998
1.688,0.023655273,0.022827813,0.059251171874999994,0.018335145,0.018392443
1.692,0.023654435546874998,0.022826939,0.05925573,0.018334943359374998,0.018394221
1.696,0.023653529,0.022827645,0.059259453,0.018334877,0.018392779
1.7,0.023653563,0.022826738281249998,0.059256734374999995,0.01833424,0.018392041
1.704,0.02365316,0.02282523,0.059250535,0.018333703,0.018394857
1.708,0.023652154,0.022825363,0.059249359,0.018332361328124998,0.018394188
1.712,0.023650914,0.022825801,0.059254391,0.018331355468749998,0.018388185546874998
1.716,0.023650982421874998,0.022825431640624998,0.059259316,0.018331892578124998,0.018388354
1.72,0.023650178,0.022825666,0.059256266,0.018332361328124998,0.018388018
1.724,0.02365068,0.022825330078124997,0.05924973,0.018331189,0.018387246
1.728,0.023649136718749998,0.022824459,0.059247617,0.018329746,0.018388755859374998
1.732,0.0236485,0.022824191,0.059252445,0.018329646,0.018387816
1.736,0.023648332,0.022824726562499998,0.059257844,0.018330652,0.01838842
1.74,0.023648367187499998,0.022824895,0.059256402,0.018330752,0.018388185546874998
1.744,0.023647059,0.022824525,0.059251539,0.018329646,0.018387816
1.748,0.023645382812499997,0.022824492,0.059250535,0.01832807,0.018386811
1.752,0.02364565,0.022825029,0.059255863281249994,0.018326596,0.018385068
1.756,0.023647292968749997,0.022824759765624997,0.059259621,0.018325689,0.018383357
1.76,0.023648668,0.022825029,0.059258914062499994,0.01832616,0.018383459
1.764,0.023647964843749997,0.022825398437499998,0.059253851562499994,0.01832673,0.018384363
1.768,0.023647394531249998,0.022825564,0.059251508,0.018326328,0.01838443
1.772,0.023647998,0.022825531,0.05925734,0.018326596,0.018385
1.776,0.023648902,0.022826001953124998,0.05926284,0.018327098,0.018383861
1.78,0.023649941,0.022825967,0.059262167968749994,0.018325992187499997,0.018381982
1.784,0.023649941,0.022825867187499998,0.059255461,0.018324617,0.018382922
1.788,0.023649874999999997,0.022825197,0.059253215,0.018323578,0.018381883
1.792,0.023650178,0.02282523,0.059257137,0.018323779,0.018380877
1.796,0.023651016,0.022825732421874998,0.059263207031249994,0.018325287109374998,0.018382117187499998
1.8,0.023651586,0.022826203,0.059262133,0.018326025,0.018381379
1.804,0.023650178,0.022826605,0.059255628906249996,0.018326127,0.018382552734374998
1.808,0.023649674,0.022826738281249998,0.059253718749999996,0.018325891,0.01838433
1.812,0.023650814,0.022826807,0.059257238,0.018325355,0.01838309
1.816,0.023649473,0.022827007812499998,0.059262769531249995,0.018325488,0.018382552734374998
1.82,0.023649136718749998,0.022827777343749998,0.059259484,0.018324953124999998,0.018382955
1.824,0.023649574,0.022828215,0.059252109,0.018324885,0.018382619
1.828,0.023649406249999998,0.022827275,0.059249629,0.018324517578124998,0.018382654
1.832,0.023648970703124998,0.022826738281249998,0.059253352,0.018324047,0.018380877
1.836,0.023649271484374998,0.022826203,0.05925952,0.018325154,0.018381447
1.84,0.023650277343749998,0.022826639,0.059257777,0.018326227,0.018381982
1.844,0.023651385,0.022827242,0.059251137,0.018326059,0.018381178
1.848,0.023651049,0.022827242,0.059247215,0.018325086,0.018375947265624998
1.852,0.023650982421874998,0.022827645,0.05925127,0.018324281249999998,0.018373869
1.856,0.023653429687499998,0.022829152,0.059257305,0.018324416015624997,0.018377658203124998
1.86,0.023652658,0.022829656,0.059255328,0.018325086,0.018377958984374998
1.864,0.023651853515624998,0.022829353515624998,0.059249258,0.018325623,0.018378396
1.868,0.023651184,0.022828951,0.059246980468749995,0.018326394531249998,0.018377523437499998
1.872,0.023651049,0.022828414,0.059253316,0.018327635,0.01837692
1.876,0.023651787,0.022827777343749998,0.059258984,0.018328104,0.018377457
1.88,0.023652021484374997,0.022826771484374998,0.059256667968749996,0.018327166,0.018375746
1.884,0.023651451171874997,0.022827174,0.059249496,0.018326461,0.018374406
1.888,0.02365125,0.022826537,0.059246074,0.018325086,0.018375982
1.892,0.023652691,0.022825699,0.059251371,0.018324684,0.018378964843749998
1.896,0.023650379,0.022826167968749998,0.059257777,0.018325221,0.018378127
1.9,0.023649104,0.022826807,0.059257574,0.018326127,0.018376551
1.904,0.023649809,0.022827141,0.059250132812499995,0.018326059,0.018375848
1.908,0.023649707031249998,0.022826404,0.059247246,0.018325287109374998,0.01837474
1.912,0.023648635,0.022825431640624998,0.059252074,0.018325824218749998,0.01837625
1.916,0.02364907,0.022825699,0.059258445,0.018327064,0.018379367
1.92,0.023650646,0.022826302734374998,0.059257976562499995,0.018328037,0.018380844
1.924,0.023650646,0.022826236,0.059251976562499996,0.018327736,0.018379033
1.928,0.023650746093749998,0.022826203,0.059250300781249994,0.01832673,0.018377054687499998
1.932,0.023650781,0.022826807,0.05925432,0.018326563,0.01837625
1.936,0.02365192,0.022827711,0.059260559,0.0183275,0.018375646
1.94,0.023652859374999998,0.022828615,0.059258847656249995,0.018328139,0.018375177734374998
1.944,0.023652423828124998,0.022829789062499998,0.059252476562499996,0.018327970703124998,0.018374908
1.948,0.023652691,0.022829218749999998,0.059249761718749995,0.018327064,0.018375412
1.952,0.023652523,0.022827711,0.059255125,0.018326596,0.018375914
1.956,0.023652189,0.022827375,0.059261062499999996,0.018327298828124998,0.018375848
1.96,0.023651016,0.022827476562499997,0.059259386718749994,0.018328271,0.018373533
1.964,0.023650814,0.022828146,0.059254391,0.018329310546874998,0.018373734
1.968,0.023650076,0.022828215,0.059251473,0.018328976562499998,0.018376082031249998
1.972,0.023649506,0.022828013671874998,0.059256332,0.018329043,0.018376451
1.976,0.023649740234374998,0.022827744140624998,0.059262301,0.018330148,0.018374775
1.98,0.023650142578124998,0.022827611,0.059261832031249996,0.018331725,0.018377758
1.984,0.023650445312499997,0.022828314453124998,0.059254961,0.018331523,0.018377154
1.988,0.023650043,0.022828684,0.059251809,0.018330049,0.018376517578124998
1.992,0.023648533,0.022827979,0.059257473,0.018329343749999998,0.018377859
1.996,0.023646488,0.022826973,0.059262871093749996,0.018330015624999998,0.018379301
2,0.023646623,0.02282751,0.059262167968749994,0.018331256,0.018381009765624998
2.004,0.023647326,0.022828717,0.059254457,0.018330919921874998,0.018379938
2.008,0.023646722656249997,0.022827443359374998,0.059249629,0.018329211,0.018379535156249998
2.012,0.023646722656249997,0.022825801,0.059252710937499994,0.018328707,0.018378799
2.016,0.023646958984374997,0.022825564,0.059257305,0.018328373,0.018378496
2.02,0.023647494,0.022826437499999998,0.059255999999999996,0.018327266,0.01837977
2.024,0.023647394531249998,0.022826236,0.059248824218749996,0.018326461,0.018379703
2.028,0.023647124999999998,0.022824525,0.059245605,0.018325725,0.01837816
2.032,0.023647896,0.022823720703124998,0.059248355,0.018325355,0.018377021
2.036,0.023648400390624998,0.022822648,0.059251874999999996,0.018324752,0.018374842
2.04,0.023646722656249997,0.022821877,0.059249258,0.018325287109374998,0.018376016
2.044,0.023647292968749997,0.022822213,0.059241749999999996,0.018325154,0.018376787
2.048,0.023647394531249998,0.022821541,0.059237223,0.018322605,0.018373434
2.052,0.023644947,0.022819967,0.059240375,0.018322639,0.018368908
2.056,0.023644779296874998,0.022818826171874997,0.059244632812499996,0.018324215,0.018373098
2.06,0.023643605,0.022819664062499998,0.05924282,0.018324316,0.018374037109374998
2.064,0.023643203124999998,0.022820502,0.059235816406249996,0.018322539,0.018369074
2.068,0.023641258,0.022820334,0.059232262,0.018321398,0.018363643
2.072,0.023637705078124998,0.022818658203124998,0.059236921874999994,0.018322338,0.018365789
2.076,0.023638979,0.022818691406249998,0.059242855468749994,0.0183216,0.018364045
2.08,0.023638006,0.022819328,0.059241378906249996,0.018319521,0.018365855468749998
2.084,0.023634585937499997,0.022817685546874997,0.059234707,0.018318246,0.018373166015624998
2.088,0.023634955,0.022816111,0.059231188,0.018317242,0.018368572
2.092,0.023636564453124998,0.022814971,0.059235445312499996,0.018315029,0.018361162
2.096,0.023636666,0.022813395,0.059240543,0.018313922,0.018358982
2.1,0.023635726562499997,0.022812589843749998,0.059238765624999995,0.018313822265624998,0.018358648
2.104,0.023634754,0.022812455,0.059231792968749995,0.018312580078124998,0.018360156
2.108,0.023632742,0.022811686,0.059229109,0.018311675781249998,0.018359318359374998
2.112,0.023632240234374997,0.022811283203124998,0.059234675781249996,0.018311408,0.018356033
2.116,0.023631736,0.022812052734374998,0.059241046874999995,0.018311675781249998,0.018355160156249998
2.12,0.023630262,0.022812557,0.059240813,0.018312648,0.018357742187499998
2.124,0.023629391,0.022812254,0.059233871093749994,0.018312111,0.018358414062499998
2.128,0.023629121,0.022811316,0.059230047,0.018311138671874998,0.018356334
2.132,0.023628048828124998,0.022810479,0.059233367,0.01830973,0.01835174
2.136,0.023627713,0.022809908,0.059237996093749995,0.018309898,0.0183504
2.14,0.02362768,0.022810344,0.059236753906249995,0.018309798828124998,0.018351172
2.144,0.023625869,0.022809572265624998,0.059229847656249994,0.018309027,0.018351842
2.148,0.023626104,0.022809639,0.059226328,0.018308523437499998,0.018347584
2.152,0.023626674,0.022808768,0.059230820312499995,0.018307988,0.018347281
2.156,0.023626505859374997,0.022808097656249998,0.059236387,0.018308523437499998,0.018352109374999998
2.16,0.023626104,0.022808701171874998,0.059236387,0.018309697265624997,0.018354893
2.164,0.023626439,0.022808869,0.059230184,0.018310301,0.018352814453124998
2.168,0.023625166015624997,0.022809338,0.059226863,0.018309496,0.018349863
2.172,0.023624227,0.022809437499999998,0.059231488281249994,0.018308792968749998,0.018349662109374998
2.176,0.023624929687499997,0.022809104,0.059237355468749996,0.01830849,0.018349193359374998
2.18,0.023625869,0.022809371,0.059235882812499994,0.018308189,0.018348656249999998
2.184,0.02362577,0.022809639,0.059229343749999996,0.018307484,0.018348422
2.188,0.023625199,0.022809371,0.05922502,0.018306781249999998,0.018346678
2.192,0.023624863,0.02280917,0.059228371093749996,0.018306914,0.018343896
2.196,0.023625367,0.0228085,0.059232664062499996,0.018306346,0.018343092
2.2,0.02362607,0.022809437499999998,0.059232832031249995,0.018306848,0.018346344
2.204,0.023624929687499997,0.022809506,0.059227098,0.018306848,0.018346947
2.208,0.023623320312499998,0.022808936,0.059224281,0.018306043,0.018345506
2.212,0.023622818,0.022808667968749998,0.059229277,0.01830668,0.01834393
2.216,0.023623154,0.022808064,0.059235343749999995,0.018308625,0.018341885
2.22,0.023623455078124998,0.022807863,0.059235343749999995,0.018310367,0.018343828
2.224,0.023623355,0.022808097656249998,0.059228574218749996,0.018309562499999998,0.018347518
2.228,0.023622684,0.022806857,0.059223242,0.018307484,0.018346578
2.232,0.023622785,0.022804945312499998,0.059226293,0.018305574,0.01834299
2.236,0.023622752,0.022803906,0.05923216,0.01830601,0.018343258
2.24,0.023623221,0.022804242,0.059230887,0.018306848,0.018345773
2.244,0.023622986328124998,0.022804576,0.059222738,0.018306814,0.018342354
2.248,0.023620974609374998,0.022804275,0.059217609,0.018304902,0.018338396
2.252,0.023618929687499998,0.022802766,0.059221934,0.018303328,0.018339537109374998
2.256,0.023618828124999998,0.022802062499999998,0.059227969,0.018302891,0.018338465
2.26,0.023619566,0.02280109,0.059227566406249994,0.018303227,0.018338966796874998
2.264,0.023619131,0.022800318,0.059221266,0.018302891,0.018340643
2.268,0.023619465,0.022800621093749997,0.059218113,0.018301852,0.018334475
2.272,0.023618828124999998,0.022800754,0.059223308593749996,0.018301248,0.018334105
2.276,0.023618158,0.022799783,0.059230586,0.018302188,0.018339838
2.28,0.023617789,0.022799949,0.059231691406249995,0.018302857,0.018340309
2.284,0.02361675,0.022799984,0.059226628906249995,0.018303025390624998,0.018340542968749998
2.288,0.023617453,0.022798910156249998,0.059222437499999996,0.018303025390624998,0.018340140624999998
2.292,0.023617723,0.022797871093749998,0.059226125,0.018302992,0.018336184
2.296,0.023617789,0.022798072,0.059230852,0.018303160156249998,0.018334441
2.3,0.023616984,0.022799381,0.059230316,0.018303932,0.018334811
2.304,0.023619097656249997,0.022800117,0.059222973,0.018303193,0.018331088
2.308,0.023620906,0.022797871093749998,0.059217105468749996,0.018300176,0.018328674
2.312,0.023621275390624998,0.022796229,0.059218347656249996,0.018297023,0.018327836
2.316,0.023620068,0.022796229,0.059224347656249995,0.018297125,0.018328439453124998
2.32,0.023619833984374998,0.022796932,0.059223679687499996,0.018297896,0.018329412
2.324,0.023620471,0.022797133,0.059216703,0.018296654,0.018328406
2.328,0.023619332,0.022796462890624997,0.059213249999999995,0.018296287,0.018328337890624997
2.332,0.023619902,0.022796229,0.059216066,0.018295717,0.018324517578124998
2.336,0.023619465,0.022796061,0.059222102,0.018294477,0.018322908
2.34,0.023618125,0.022796396,0.059223308593749996,0.018294074218749998,0.018325488
2.344,0.023618191,0.022796598,0.059216738,0.018292598,0.018322975
2.348,0.023618459,0.022796094,0.059214054687499997,0.018291189,0.018320660156249998
2.352,0.023619566,0.022795625,0.059217945,0.018290754,0.018320660156249998
2.356,0.023620002,0.022795357,0.05922398,0.018291592,0.018324014
2.36,0.023618828124999998,0.022795223,0.059224281,0.018291525,0.018323845703124998
2.364,0.023617588,0.022798307,0.059220191,0.018293804687499998,0.018324785
2.368,0.023617957031249998,0.022799345703124998,0.059217441406249995,0.018294477,0.018324953124999998
2.372,0.023617051,0.022799313,0.059220559,0.018293738,0.018322639
2.376,0.023616816406249998,0.022798474609374998,0.05922616,0.01829357,0.018323578
2.38,0.023616951171874997,0.022797468749999997,0.059226730468749995,0.018293303,0.01832465
2.384,0.023617822265624998,0.022797066,0.059221195312499995,0.01829357,0.018320527
2.388,0.023618896,0.022796162,0.05921741,0.018293873,0.018317342
2.392,0.023619902,0.022795691,0.059220191,0.018294275,0.018324953124999998
2.396,0.023619968749999998,0.022794754,0.059224047,0.018294309,0.018326292968749998
2.4,0.023621242,0.022796094,0.059224148,0.018295684,0.018324449
2.404,0.023621845703124998,0.022796967,0.059218246093749996,0.018297225,0.018326797
2.408,0.023621477,0.022797703,0.059215063,0.018296957031249998,0.01832626
2.412,0.023620572,0.022799044921874997,0.059219453124999995,0.018296723,0.018323176
2.416,0.023618896,0.022796396,0.059223813,0.01829766,0.018323812499999998
2.42,0.023617891,0.022793546874999997,0.059221464843749995,0.018296387,0.018325221
2.424,0.023620906,0.022794049,0.059215093749999996,0.018295615,0.018325523437499998
2.428,0.023620338,0.022794049,0.059211707,0.018294644531249998,0.018324382812499998
2.432,0.02361799,0.022793346,0.059215531249999995,0.018293303,0.018321800781249998
2.436,0.023619131,0.022794049,0.059221598,0.018293369140624998,0.018322305
2.44,0.023620471,0.022795558593749998,0.059221766,0.018294644531249998,0.018322104
2.444,0.023619801,0.022797201,0.059215934,0.018295314,0.018321533
2.448,0.023617891,0.022797201,0.059210973,0.018294879,0.018319387
2.452,0.023616113,0.022795793,0.059213316406249994,0.018294207,0.018320494
2.456,0.023615408,0.022795123046874997,0.059218918,0.018294041,0.018321164
2.46,0.023613264,0.022794184,0.059217508,0.018294275,0.018322539
2.464,0.02361182,0.022793613,0.059209563,0.018293738,0.018321299
2.468,0.02361343,0.022792841796874998,0.059204801,0.01829223,0.018321465
2.472,0.023613162,0.022791334,0.059208793,0.018291357421874998,0.018320293
2.476,0.023614369140624997,0.022790328,0.059215664,0.018292867,0.018319789062499998
2.48,0.023611988,0.022789758,0.059216402343749995,0.018292564,0.018318615
2.484,0.023610849609374998,0.022791334,0.059211305,0.018292598,0.018322639
2.488,0.023610111,0.022791301,0.05920668,0.018291861,0.018320963
2.492,0.02360924,0.022789656,0.059209766,0.018292264,0.018320660156249998
2.496,0.023610748046874998,0.022789422,0.059214492187499995,0.018292933593749998,0.018320561
2.5,0.02361152,0.022790127,0.059213789062499994,0.018293135,0.018321197
2.504,0.02361209,0.022790898,0.059206746,0.018292195,0.018317543
2.508,0.023611084,0.022788584,0.059200309,0.018290017578124998,0.018317141
2.512,0.023609574,0.022786572,0.059202824,0.018289345703124998,0.018320762
2.516,0.023608334,0.022785635,0.059209195,0.018289178,0.018321029
2.52,0.0236081,0.022786404,0.059209934,0.018289447265624998,0.018319287
2.524,0.023609273437499998,0.022789053,0.059204535156249995,0.018290822,0.018317107
2.528,0.023608469,0.022787512,0.059200309,0.018290688,0.018319488
2.532,0.023608267578124998,0.022784795,0.059202992,0.018289045,0.018322104
2.536,0.023607898,0.022784662,0.059207887,0.018286094,0.018317979
2.54,0.023607965,0.022785266,0.059208656,0.018287435546874998,0.018313955
2.544,0.023610045,0.022785332031249998,0.059203496093749995,0.018288508,0.018316738281249998
2.548,0.023611418,0.022785064,0.059198969,0.018286598,0.018316805
2.552,0.023610312499999998,0.022783119,0.059200914,0.018284619,0.018313889
2.556,0.023610279296874998,0.022782281249999998,0.059206175781249995,0.018283914,0.018313922
2.56,0.023609105,0.022783354,0.059209363281249996,0.018286229,0.018319689
2.564,0.023609006,0.02278399,0.059204097656249996,0.018286094,0.018313688
2.568,0.023608502,0.022783455,0.059199605,0.018284718749999998,0.018313955
2.572,0.023607898,0.022782449,0.05920373,0.018283982421874997,0.018315296874999998
2.576,0.023607832031249998,0.022780806640624998,0.059209797,0.018284184,0.018313486
2.58,0.023607932,0.022780269531249998,0.059211070312499996,0.018285322,0.018313654
2.584,0.023607229,0.022780303,0.059205507812499995,0.018285289062499998,0.018314994
2.588,0.023606826171874998,0.022779766,0.059201852,0.018284518,0.018312414
2.592,0.023607195,0.022779465,0.059204902,0.01828368,0.018311307
2.596,0.023606255859374998,0.022779432,0.059209965,0.018283277343749998,0.018312916
2.6,0.023604881,0.0227796,0.05921077,0.018283277343749998,0.018313051
2.604,0.023604646,0.022780605,0.059205004,0.018282373046874998,0.018310904
2.608,0.023605049,0.022781041,0.059202656,0.018282641,0.018312012
2.612,0.023605418,0.022780303,0.059207551,0.018282742,0.018311307
2.616,0.023605518,0.022780068,0.059212613,0.018282875,0.018310402
2.62,0.023606758,0.022779867,0.059213148437499995,0.018283076,0.018311138671874998
2.624,0.023606724609374997,0.022779967,0.059207922,0.018284352,0.018313486
2.628,0.02360743,0.022779297,0.059204633,0.018284049,0.018312580078124998
2.632,0.023608,0.022778594,0.059208355468749994,0.018283814453124998,0.018310234374999998
2.636,0.02360877,0.022779633,0.059214758,0.018284082,0.018309631
2.64,0.023609171874999998,0.022780438,0.059216102,0.018284754,0.01831134
2.644,0.023608234,0.022779934,0.059210234,0.018285523,0.018313084
2.648,0.023607396484374998,0.022779128906249998,0.059205875,0.018285558593749997,0.018309328
2.652,0.023607294921874997,0.022777387,0.059207988,0.018284384765624998,0.018308322
2.656,0.023606826171874998,0.022776949,0.059213051,0.018283748,0.018313084
2.66,0.023607396484374998,0.022777318,0.059213855,0.018282775,0.018310166
2.664,0.023608132812499998,0.022777955,0.059209293,0.018281802734374998,0.018309295
2.668,0.023606893,0.022777251953124997,0.059206277343749995,0.018282473,0.01830973
2.672,0.023606390624999998,0.022776279,0.05921,0.018283311,0.018309262
2.676,0.023606424,0.02277685,0.05921627,0.018283748,0.018308121093749997
2.68,0.023605418,0.022777083984374998,0.059216234374999996,0.018283277343749998,0.018309262
2.684,0.023605854,0.022776916,0.059208324,0.018281199,0.018309631
2.688,0.023604914,0.022775742,0.059202758,0.018279455,0.018309463
2.692,0.023604277,0.022774904,0.059204938,0.018278650390624998,0.018309295
2.696,0.023603875,0.022774973,0.059210902343749997,0.018278919921874998,0.018308792968749998
2.7,0.023603607,0.022775006,0.059212546874999994,0.018280361328124998,0.018309295
2.704,0.023602734,0.022775240234374997,0.059207484374999994,0.018281064,0.018309697265624997
2.708,0.023601965,0.022774703,0.05920259,0.018279857,0.018310301
2.712,0.023600455,0.022773732421874998,0.059205035156249995,0.018277879,0.018309463
2.716,0.023599115,0.022773060546874998,0.059211004,0.018277713,0.018308792968749998
2.72,0.023598008,0.022772054687499998,0.059211941406249996,0.018277678,0.018306814
2.724,0.023597338,0.022771385,0.059206949,0.018278047,0.018309328
2.728,0.023596432,0.022770848,0.059203426,0.018278885,0.018307652343749998
2.732,0.023597104,0.022770848,0.059207852,0.018278047,0.018302287
2.736,0.023597740234374998,0.022770177734374997,0.059213621093749995,0.018277041,0.018300476562499998
2.74,0.023597539,0.022770881,0.059214691,0.018276773437499998,0.018302758
2.744,0.023597035156249998,0.022771753906249997,0.059209129,0.018276605,0.018303730468749998
2.748,0.023597104,0.022772928,0.059204433593749994,0.018276539,0.018301518
2.752,0.023595393,0.022772391,0.059208992,0.018277176,0.018303025390624998
2.756,0.023594822,0.022770547,0.059214324218749996,0.018276773437499998,0.018298666
2.76,0.023596599609374998,0.02277182,0.059216035,0.018277512,0.018296654
2.764,0.023597572,0.022773967,0.059210636718749994,0.018277644531249998,0.018305473
2.768,0.023597773,0.022774301,0.059204602,0.018276438,0.018306277
2.772,0.023597506,0.022772826,0.059207953,0.018275801,0.018302992
2.776,0.023596533,0.022772289,0.059214691,0.018276672,0.018302488281249998
2.78,0.023595593749999998,0.022772893,0.059217039,0.018277746,0.018305037
2.784,0.023595023437499998,0.022773934,0.059213688,0.018279389,0.018309093749999998
2.788,0.023593482,0.022772156249999998,0.059207281,0.018279121,0.018306177734374998
2.792,0.023593113281249998,0.022771854,0.059210031249999996,0.018279085937499998,0.018301752
2.796,0.023593951,0.022771150390624998,0.059215800781249994,0.018279085937499998,0.018303662
2.8,0.02359318,0.022771150390624998,0.059217242,0.018279188,0.018303998
2.804,0.023593146484374997,0.022772054687499998,0.059211641,0.018280025,0.018303092
2.808,0.023592342,0.022772391,0.059207046874999995,0.018279758,0.018303293
2.812,0.023591303,0.022772324218749997,0.059210973,0.018279287,0.018303361
2.816,0.023591537109374998,0.022771922,0.059216437499999997,0.018279220703124998,0.018302019531249998
2.82,0.023591604,0.02277068,0.059218449,0.018279925781249998,0.018301818
2.824,0.023591939,0.022770478515624998,0.059214523,0.018280293,0.018303160156249998
2.828,0.023592441406249998,0.022769977,0.059210234,0.018278986,0.018303127
2.832,0.023592107421874998,0.022769138671874998,0.059214121093749995,0.018277343749999998,0.018303764
2.836,0.023593281,0.022768301,0.05922009,0.01827684,0.01830108
2.84,0.023595124999999998,0.022769238,0.059221934,0.018278214843749998,0.018299639
2.844,0.023596666,0.022770009765624998,0.059216234374999996,0.018279085937499998,0.018302121
2.848,0.023596098,0.022769508,0.059209027,0.018278953,0.018302557
2.852,0.023594587890624998,0.022768803,0.059211574,0.018277879,0.018300142578124998
2.856,0.023595057,0.022768736,0.059218414062499995,0.018277512,0.018300242
2.86,0.023596432,0.022769977,0.059221266,0.018278248,0.018302086
2.864,0.023596834,0.022769809,0.059216570312499994,0.018278785156249998,0.018303595703124998
2.868,0.023594924,0.0227684,0.059211375,0.018278214843749998,0.018302121
2.872,0.023592677734374998,0.022767395,0.059215261718749995,0.018277813,0.018300242
2.876,0.023592912,0.022768535,0.059221867,0.018278115,0.018299672
2.88,0.023593516,0.022770042968749998,0.059223207031249996,0.018279121,0.01829917
2.884,0.02359499,0.022770042968749998,0.05921818,0.018279287,0.018299404
2.888,0.023594822,0.022768466796874998,0.059211273437499996,0.018277275,0.018299807
2.892,0.023593716796874997,0.022767797,0.059213148437499995,0.018276035,0.018301013671874998
2.896,0.023593314,0.022767797,0.059219285156249996,0.018276002,0.018303461
2.9,0.023593548828124998,0.022768064,0.059220257812499996,0.01827684,0.018303998
2.904,0.023593885,0.022767460937499998,0.059214457,0.018277443,0.018302254
2.908,0.023593414,0.022766959,0.059208121093749996,0.018277947,0.018304098
2.912,0.02359318,0.022766355,0.059208422,0.018276203124999998,0.018301148437499998
2.916,0.023592342,0.022765953,0.059211707,0.018274594,0.018299305
2.92,0.023591705,0.022765248,0.059210265624999994,0.018275398,0.018303025390624998
2.924,0.023592912,0.022765416015624998,0.059201984374999995,0.018275533,0.018305037
2.928,0.023591303,0.022763439,0.059192465,0.018273587890624998,0.018304434
2.932,0.023588988281249997,0.022762266,0.059191425781249994,0.018272918,0.018303998
2.936,0.023588922,0.022763338,0.059194742187499996,0.018273354,0.018304971
2.94,0.023588754,0.022763070312499998,0.059193035,0.018273086,0.018305205078124998
2.944,0.023588050781249998,0.022761527343749997,0.059184754,0.018271576171874998,0.018304634765624998
2.948,0.023587111,0.022760656,0.059176839843749995,0.018270168,0.018304098
2.952,0.023587781,0.022763505859374998,0.059178683593749996,0.018270839843749997,0.018306210937499998
2.956,0.023588318,0.02276317,0.059182605468749996,0.018270035,0.018305104
2.96,0.023588453,0.022763203,0.059182035,0.018270303,0.018307049
2.964,0.023586441,0.022761494140624998,0.059173922,0.018269063,0.018307887
2.968,0.023585402,0.022758744,0.059165304687499996,0.018266379,0.018305373
2.972,0.023585637,0.022758443359374998,0.059165375,0.018266111328124997,0.018303662
2.976,0.023585736,0.022757369140624997,0.059169898,0.018265811,0.018302254
2.98,0.023587346,0.022755225,0.05916923,0.018266111328124997,0.018303328
2.984,0.023587715,0.022753648,0.059161281249999996,0.018264970703124998,0.018302656
2.988,0.023586373046874998,0.022754117,0.059155148,0.018264033,0.018302689
2.992,0.023585166,0.022752843749999998,0.059156121,0.018263799,0.018302656
2.996,0.023584361328124998,0.022751267578124998,0.05916125,0.018262925781249998,0.018303058593749998
3,0.023583523,0.022752576,0.059163363,0.018263967,0.018302455078124998
3.004,0.02358349,0.022753714843749998,0.059156757812499995,0.018265105,0.018302857
3.008,0.023583424,0.022753447265624997,0.059150386718749996,0.018263463,0.018305674
3.012,0.023581947,0.022752978515624998,0.059150988,0.018262121,0.018305875
3.016,0.023581178,0.022751168,0.059155852,0.018262859,0.018301518
3.02,0.023579701,0.022750766,0.059157328,0.018264033,0.018298633
3.024,0.023577857421874997,0.022751402343749998,0.059150519531249994,0.018263396,0.018305640624999998
3.028,0.023577992,0.022751336,0.059144719,0.018263363,0.018309562499999998
3.032,0.023578227,0.022748418,0.05914482,0.018260982,0.018306109
3.036,0.023576818359374998,0.022744529,0.059147102,0.018258266,0.018299941
3.04,0.023576047,0.022742652,0.059147671874999995,0.018257427734374998,0.018300344
3.044,0.023576584,0.022744025,0.059141703,0.018258266,0.01830165
3.048,0.023575109,0.022743422,0.059135871,0.018258232,0.018299807
3.052,0.023574975,0.022743154,0.059137879,0.01825716,0.018292531
3.056,0.023575845703124997,0.022743691,0.059144519531249995,0.018257092,0.018289078
3.06,0.023573465,0.022742451,0.059146832,0.018257596,0.018298666
3.064,0.023575209,0.022743724609374998,0.059143078,0.018259271,0.018302455078124998
3.068,0.023573029,0.022742383,0.059138117,0.018257863281249998,0.018297594
3.072,0.023570648437499998,0.022738158203124997,0.059139656,0.018255316,0.018297326
3.076,0.023570447,0.022736951,0.059145691,0.018254813,0.018297594
3.08,0.023568805,0.02273702,0.059148207,0.018254041,0.018292062499999998
3.084,0.02356857,0.022737587890624997,0.05914291,0.018254410156249998,0.018289078
3.088,0.023566895,0.022736617,0.05913882,0.018254242,0.018297963
3.092,0.023565889,0.022735812499999997,0.059142675781249994,0.018253035,0.018301583984374998
3.096,0.023566591796874998,0.022737354,0.059149113,0.018252432,0.018296756
3.1,0.023567465,0.022739031,0.05915223,0.018253203,0.018295380859374998
3.104,0.02356609,0.022738293,0.059146093749999996,0.018252533,0.018293939453124998
3.108,0.023563574218749998,0.022734336,0.059138887,0.018250218749999998,0.018292766
3.112,0.023563307,0.022732693,0.059142641,0.018249615,0.018294141
3.116,0.023563207,0.022732426,0.059147438,0.018249482421874998,0.018292564
3.12,0.023564045,0.022731252,0.059149378906249994,0.018249046874999997,0.018291426
3.124,0.023564279296874997,0.022730348,0.059143312499999996,0.018248777343749998,0.018291592
3.128,0.023561328,0.022729543,0.059135969,0.018247402,0.018292432
3.132,0.023560958984374998,0.022728501953124997,0.059137746,0.018246598,0.018292465
3.136,0.023562066,0.022728134765624998,0.059144184,0.018247537,0.018290084
3.14,0.023561664062499998,0.022727496,0.059146429687499995,0.018247369,0.018289045
3.144,0.023560154,0.022726123046874998,0.059140863,0.018246396,0.018293201
3.148,0.023560289,0.022725049,0.059137546874999995,0.018247504,0.018292029296874998
3.152,0.023560322,0.022723541015624998,0.059141168,0.018247,0.018288844
3.156,0.023559988,0.022723271484374998,0.059146429687499995,0.018246465,0.018289514
3.16,0.023558947265624998,0.022723641,0.059147906,0.018246162,0.018290721
3.164,0.02355801,0.022723641,0.059142742,0.018246363,0.018292933593749998
3.168,0.023557640624999997,0.022723439453124997,0.059139457031249995,0.018246765624999998,0.018291727
3.172,0.023557305,0.022721295,0.059141836,0.018246029,0.018286496
3.176,0.023559216796874997,0.022720893,0.059147168,0.018244586,0.018282305
3.18,0.02355925,0.022721596,0.059150891,0.018243714843749998,0.018284652
3.184,0.023555998,0.022721529296874998,0.059145691,0.018242708984374998,0.018287736
3.188,0.023554890624999998,0.022723139,0.059141133,0.018242508,0.018289313
3.192,0.023554523,0.022722199,0.059142238281249995,0.018241904,0.018287402
3.196,0.023555058593749997,0.022720087890624997,0.059147671874999995,0.018242138671874998,0.018283076
3.2,0.023555193,0.022716902343749998,0.059149749999999994,0.018240564,0.018281736
3.204,0.023554188,0.022717238,0.059145055,0.018240496,0.018284518
3.208,0.023552779,0.022717271,0.059141468749999995,0.018241033,0.018288072
3.212,0.023553684,0.022717271,0.059143914,0.018240664,0.018287133
3.216,0.023554254,0.022717439,0.059149683593749995,0.018239121093749998,0.018285457
3.22,0.023554086,0.022718376953124998,0.059152734374999995,0.018238955,0.018286563
3.224,0.023553583984374998,0.022718511718749997,0.059146832,0.018238854,0.018284652
3.228,0.023552544921874998,0.02271774,0.059141703,0.018238887,0.018282707031249998
3.232,0.02355184,0.02271717,0.05914318,0.018238586,0.018279857
3.236,0.023552947,0.022716902343749998,0.059148339843749995,0.018238484,0.018280193
3.24,0.023552512,0.022717271,0.059151895,0.018238652343749998,0.018283211
3.244,0.023551437499999998,0.022717305,0.059146699218749994,0.018238385,0.018285189
3.248,0.023550968749999998,0.022717002,0.059141973,0.018237311,0.018284619
3.252,0.023549996093749997,0.022715996,0.059143749999999995,0.018237379,0.018284417968749998
3.256,0.02354966,0.02271526,0.059148508,0.018237512,0.018282305
3.26,0.023548554687499997,0.022716098,0.059151527343749996,0.018238553,0.018280529
3.264,0.02354832,0.022716668,0.059146699218749994,0.018239859,0.018283412109374998
3.268,0.023549695,0.022715227,0.059141234,0.018237949,0.01827902
3.272,0.023549158,0.022714019531249997,0.059143312499999996,0.018237043,0.018278281
3.276,0.023549158,0.022713549,0.059148207,0.018236809,0.018280226562499998
3.28,0.023550097656249998,0.022714588,0.059150351562499995,0.018236707,0.018278214843749998
3.284,0.02354966,0.022715092,0.059145492187499996,0.018236977,0.018276873
3.288,0.023548219,0.022713381,0.059139324,0.018235634765624998,0.018278852
3.292,0.023547482421874998,0.022712008,0.059141097656249995,0.018234563,0.018280629
3.296,0.023547885,0.0227109,0.059146496,0.01823426,0.018279287
3.3,0.023549896,0.022711135,0.05914918,0.018233623046874998,0.018274828
3.304,0.023549527343749998,0.022710934,0.059145727,0.01823359,0.018273656
3.308,0.023548152,0.022709795,0.059140832,0.018232852,0.018276035
3.312,0.023546912,0.022708018,0.059142977,0.018232449,0.018279758
3.316,0.023546777,0.022708353515624998,0.059150117,0.018232852,0.018279355468749998
3.32,0.023550063,0.022709057,0.059152867,0.018233187499999998,0.018278953
3.324,0.023549594,0.022708084,0.059146195,0.018232082,0.018277678
3.328,0.023546711,0.022706207031249998,0.059139422,0.018229834,0.018275029
3.332,0.023546374999999998,0.022704934,0.059140129,0.018228963,0.018273086
3.336,0.023546041015624998,0.022704967,0.059146027,0.018229533,0.018274125
3.34,0.023544867,0.022705604,0.059150254,0.018230908,0.018275332
3.344,0.023544363281249998,0.022705871,0.059146164,0.018231846,0.018275834
3.348,0.023544297,0.022706675781249998,0.059141133,0.018231779,0.018274662
3.352,0.023543894531249998,0.022705939,0.059142641,0.018232014,0.01827265
3.356,0.023544195,0.022705703,0.059148542968749995,0.018231344,0.018272348
3.36,0.023544396,0.022705537,0.059150453124999995,0.018230674,0.018274527
3.364,0.023545,0.022706240234374998,0.059146129,0.01823141,0.018277611
3.368,0.023546207,0.022706341796874998,0.059141168,0.018231344,0.01827426
3.372,0.023546242,0.022705669921874998,0.059143480468749995,0.018231479,0.01827332
3.376,0.023545135,0.022704295,0.059149348,0.018231746,0.018275533
3.38,0.023545537,0.022703658203124998,0.059152031,0.018231242,0.018272047
3.384,0.023545303,0.022703759765624998,0.059147839843749994,0.018231175781249997,0.018276304687499998
3.388,0.023543559,0.022704061,0.059143512,0.018231175781249997,0.018277879
3.392,0.023539805,0.022703087890624998,0.059145593749999996,0.018229902,0.018271543
3.396,0.023539234,0.022701646484374997,0.059151461,0.018229432,0.018271443
3.4,0.023541011718749998,0.02270091,0.059155047,0.018230941,0.018273924
3.404,0.023541682,0.022701177734374998,0.059151125,0.018231512,0.018272146484374998
3.408,0.023542385,0.022701042968749998,0.059145492187499996,0.018231512,0.018270839843749997
3.412,0.023542117,0.02270034,0.059147535,0.018230605468749998,0.018271678
3.416,0.023541045,0.022699635,0.059154242,0.018229936,0.018270639
3.42,0.023539333984374997,0.022701412,0.059157996,0.018230674,0.018268627
3.424,0.023537658,0.022702586,0.059153605468749995,0.01823168,0.0182699
3.428,0.023538229,0.02270215,0.059147535,0.018232082,0.018272348
3.432,0.023537826171874998,0.022701646484374997,0.059148879,0.018231746,0.018274426
3.436,0.023537154296874998,0.022701514,0.059155816,0.018231746,0.018272918
3.44,0.023536752,0.022701514,0.059159941,0.018232181640624998,0.018272314
3.444,0.023536551,0.022701848,0.059155617187499995,0.018233523,0.01827426
3.448,0.023537592,0.022701916,0.059149949,0.018234628906249998,0.018270672
3.452,0.023537021,0.022700406,0.059150957,0.018233287,0.018268793
3.456,0.023535781,0.022698697265624998,0.059156422,0.01823168,0.018271041
3.46,0.023535445,0.022698730468749997,0.059159269531249996,0.018232181640624998,0.018271811
3.464,0.023535679687499998,0.022700607421874998,0.059156289,0.018233757812499998,0.018271174
3.468,0.023534574,0.022700876953124997,0.059151059,0.018233389,0.018267955
3.472,0.023535178,0.022699434,0.059152129,0.018232617187499998,0.018270672
3.476,0.023537423828124997,0.0226994,0.059158266,0.018233389,0.018268492
3.48,0.023538763671874997,0.022699803,0.059161550781249996,0.018234529,0.018265039
3.484,0.023537423828124997,0.02269883,0.059157425781249995,0.018234395,0.018262156249999998
3.488,0.023535712890624998,0.022697623,0.059151559,0.018233355,0.01826685
3.492,0.023534977,0.022697121093749998,0.059153402343749995,0.018232617187499998,0.0182699
3.496,0.023534172,0.02269692,0.059160715,0.018233322,0.018266546874999998
3.5,0.023533635,0.022695544921874998,0.059163933593749995,0.018233287,0.0182641
3.504,0.023534103515624998,0.022696215,0.059159742187499996,0.018233623046874998,0.018265742
3.508,0.023534139,0.022696785,0.059154141,0.018233689,0.018266615
3.512,0.023534841796874997,0.022696451,0.059154109,0.018232115,0.018266246
3.516,0.023534541,0.022697055,0.05915907,0.018231512,0.018266781
3.52,0.023534641,0.022697893,0.059162156,0.018231914,0.018265373
3.524,0.023536249999999998,0.022699469,0.059158937499999995,0.01823235,0.018262793
3.528,0.023535445,0.022698562499999998,0.059152867,0.018231746,0.018263967
3.532,0.023534673828124998,0.022695176,0.059153973,0.018230371,0.018266648437499998
3.536,0.023534238281249998,0.022693768,0.059159605468749994,0.018229834,0.018262424
3.54,0.023534908,0.022694908,0.059163933593749995,0.018230236,0.018258466796874998
3.544,0.023534875,0.022694605,0.059159640624999996,0.018229869,0.018257059
3.548,0.023534305,0.022694305,0.059152969,0.018228762,0.018258433593749998
3.552,0.023534004,0.02269283,0.05915327,0.018226582,0.018262523
3.556,0.023533333984374998,0.022692662109374998,0.059156824218749994,0.018225711,0.018261754
3.56,0.023533133,0.022694305,0.059159707031249995,0.018226482,0.018258902343749998
3.564,0.023532563,0.022695445,0.059156422,0.018228293,0.018258701
3.568,0.023532629,0.022694539062499998,0.059149281,0.018227186,0.018255818
3.572,0.023533701171874997,0.022694203,0.059150722656249995,0.018227152,0.018252935546874998
3.576,0.023534103515624998,0.022694203,0.059156891,0.018227723,0.018256086
3.58,0.023534808593749998,0.022693701,0.059160547,0.018227554687499998,0.018256926
3.584,0.023535982,0.022694539062499998,0.05915716,0.018227789,0.018262021484374998
3.588,0.02353558,0.022695646,0.059151023,0.018225978515624998,0.01825659
3.592,0.023534305,0.022694539062499998,0.05915223,0.018224369,0.018254076171874998
3.596,0.023533602,0.022693365,0.059159605468749994,0.018224638671874998,0.018253137
3.6,0.023534205,0.022693434,0.059163292968749996,0.018225576,0.018250287
3.604,0.023536082,0.022693768,0.059158734374999994,0.018225477,0.018251863
3.608,0.023536853515624998,0.02269407,0.059153,0.018225242,0.01825126
3.612,0.023534775,0.022694037,0.059154374999999995,0.01822618,0.018248408
3.616,0.0235334,0.022692125,0.059158835937499994,0.018224168,0.018249852
3.62,0.0235334,0.022691689,0.059162691406249995,0.018223396484374998,0.018254242
3.624,0.023532529,0.022692191,0.059158499999999996,0.018224369,0.018257662
3.628,0.023531824,0.022691287,0.059152801,0.018225242,0.018256959
3.632,0.023532662109374998,0.02269102,0.059153605468749995,0.018224604,0.018253404296874998
3.636,0.023533701171874997,0.022691689,0.059160410156249996,0.018226113281249998,0.018250621
3.64,0.02353283,0.022691957031249998,0.059165640624999995,0.018228158,0.018248107
3.644,0.023531488,0.022691220703124997,0.059162488281249995,0.018228494,0.018251627
3.648,0.023530383,0.022691354,0.059156789,0.018227756,0.018253137
3.652,0.023531053,0.022691756,0.059157628906249995,0.01822732,0.018252668
3.656,0.023532965,0.022692091796874998,0.05916343,0.018227287,0.018248912109374998
3.66,0.023533232421874998,0.022692226562499997,0.059166648,0.018228729,0.018251158
3.664,0.023533667968749998,0.022692527343749998,0.059162960937499995,0.018229130859374998,0.018253070312499998
3.668,0.023534139,0.022693031,0.059158499999999996,0.018228461,0.018252968749999997
3.672,0.023534506,0.02269226,0.059160313,0.018228225,0.018252398437499998
3.676,0.023535914,0.022692695,0.059167652343749995,0.018228627,0.018251426
3.68,0.023535847656249997,0.022693533203124998,0.05917057,0.018228828,0.01824908
3.684,0.023537088,0.022693467,0.059165574218749996,0.018228627,0.018249347656249998
3.688,0.023537859374999998,0.022694473,0.059159269531249996,0.018227990234374998,0.018248609
3.692,0.023538664,0.022695043,0.059159539062499995,0.018226281,0.018247504
3.696,0.023537926,0.022695611,0.059166914,0.018225609,0.018247035
3.7,0.023537154296874998,0.022695881,0.059172516,0.018226816,0.018245828
3.704,0.023538361,0.022696953,0.059169730468749994,0.018227990234374998,0.018251326
3.708,0.023538763671874997,0.022697457,0.059162792968749996,0.018227891,0.018254377
3.712,0.023537255859374998,0.022696953,0.059162589843749995,0.018227554687499998,0.018252098
3.716,0.023538865234374998,0.022697389,0.059168156,0.018228425781249998,0.018251662
3.72,0.02354376,0.022698025390624998,0.059172984374999994,0.018229098,0.018253707
3.724,0.023540876953124998,0.022695848,0.059168324,0.018228259765624998,0.018252968749999997
3.728,0.023538965,0.022694974609374998,0.059162254,0.018227588,0.018252902
3.732,0.023539066,0.022695914,0.059164402,0.018228359,0.018254544921874997
3.736,0.023538763671874997,0.022696082,0.059169465,0.018229164,0.018250957
3.74,0.023539066,0.02269474,0.059170336,0.018228896,0.018250052734374998
3.744,0.023540742187499998,0.022695043,0.059165140624999994,0.018229299,0.018249347656249998
3.748,0.023540844,0.022695445,0.059158769531249995,0.018229834,0.018250891
3.752,0.023540273,0.022695544921874998,0.059158367,0.018229398,0.018251058593749998
3.756,0.02353692,0.022693869,0.059162457,0.018228059,0.018250218749999998
3.76,0.023537322,0.022694506,0.059168324,0.018229834,0.018255517578124998
3.764,0.02353967,0.022695043,0.059164301,0.01823017,0.01825535
3.768,0.023539435546874998,0.022694371,0.059156355,0.018228359,0.018251662
3.772,0.023537154296874998,0.022692359,0.059155984,0.018227219,0.018254511718749998
3.776,0.023536718749999998,0.022692428,0.059161886718749994,0.018227419921874998,0.018258433593749998
3.78,0.023537893,0.022693434,0.05916534,0.018227990234374998,0.018256656
3.784,0.023539133,0.022693634765624998,0.059159574,0.018228191,0.018256287109374998
3.788,0.023536417968749997,0.022694238281249998,0.059152363281249995,0.018227924,0.018257662
3.792,0.02353501,0.022693667968749998,0.059151996,0.018228996093749998,0.018258031
3.796,0.023534103515624998,0.022692662109374998,0.059156152,0.018229098,0.018255047
3.8,0.023534473,0.022693197,0.059158835937499994,0.018228729,0.018255148
3.804,0.023535244140624998,0.022693701,0.059154476562499995,0.018227756,0.018256523437499998
3.808,0.023536384765624998,0.0226935,0.059146867,0.018226885,0.01825907
3.812,0.023536853515624998,0.02269474,0.059146531249999995,0.01822675,0.018258971
3.816,0.023536148437499998,0.022694137,0.059151628906249996,0.018226314,0.01825726
3.82,0.023536115,0.022692594,0.059155414062499995,0.018225644531249998,0.018257292968749998
3.824,0.023536082,0.022691824,0.059152801,0.018226213,0.018261418
3.828,0.023535479,0.022690951171874998,0.059146429687499995,0.018225644531249998,0.018265039
3.832,0.023534473,0.022689509765624997,0.059145660156249995,0.018224738,0.018265775
3.836,0.023533635,0.022689342,0.059150453124999995,0.018225542968749998,0.018263865
3.84,0.023531287,0.02268998,0.059152632812499994,0.018226816,0.018261887
3.844,0.023529443,0.022689846,0.05914673,0.018226918,0.018263967
3.848,0.023529041,0.022687566406249998,0.059137879,0.018224537109374998,0.018264133
3.852,0.023528539,0.02268666,0.059136742,0.01822266,0.01826524
3.856,0.023529074218749998,0.022686492187499997,0.059140965,0.01822266,0.018265811
3.86,0.023530214843749998,0.022686324218749998,0.059143480468749995,0.018223598,0.01826457
3.864,0.023528304687499998,0.022686393,0.059138046874999996,0.018223799,0.018258334
3.868,0.023526561,0.022686324218749998,0.059129566,0.018222056640624998,0.018265373
3.872,0.023527936,0.022687197,0.059129566,0.018220783,0.018272549
3.876,0.023526359,0.022684312499999998,0.059133320312499994,0.018218603515624997,0.018268291
3.88,0.023522939,0.022681363,0.059135097656249996,0.018217295,0.018266615
3.884,0.023522604,0.022681396484374998,0.059130402,0.018216994140624998,0.018264937499999998
3.888,0.023523375,0.022682201,0.059123128906249996,0.018215988281249998,0.018264268
3.892,0.023522303,0.022681799,0.059121586,0.018214814,0.01826591
3.896,0.023520994140624998,0.022681396484374998,0.059125879,0.018215016,0.018265139
3.9,0.023519688,0.022680189,0.059127555,0.018214546874999998,0.018261184
3.904,0.023518378906249998,0.022678781,0.059122559,0.018213641,0.018256992187499998
3.908,0.023516166,0.022678646,0.059115082031249995,0.018213271484374998,0.01825783
3.912,0.023516805,0.022678043,0.059113977,0.018212736,0.018262893
3.916,0.023517307,0.022676871,0.059119039062499996,0.018211394531249998,0.018264970703124998
3.92,0.023516402,0.022676166,0.05912152,0.018210656,0.018264703
3.924,0.023515964843749997,0.02267516,0.059116188,0.018210221,0.018264167968749998
3.928,0.023514490234374998,0.022674220703124998,0.059108777343749995,0.018209818359374998,0.018260244
3.932,0.023511641,0.02267402,0.059107839843749996,0.018208343749999998,0.018260646
3.936,0.023510298828124998,0.022674992,0.059113473,0.018208947,0.018264970703124998
3.94,0.023510668,0.022673214843749998,0.059116656249999996,0.018209182,0.018266313
3.944,0.023509863281249998,0.022672277,0.059112836,0.018210188,0.018266883
3.948,0.023509863281249998,0.022672344,0.059106332,0.018209382812499997,0.018265139
3.952,0.023508287109374998,0.022672445312499998,0.059105929687499996,0.018209382812499997,0.018262691
3.956,0.023504230468749998,0.022671539,0.059111328124999994,0.018210992,0.018264937499999998
3.96,0.023502287,0.022672175781249998,0.059117195312499995,0.018212400390624998,0.018269564453124998
3.964,0.023497928,0.022669830078124998,0.059112800781249995,0.018210322,0.018268961
3.968,0.023495883,0.022668656,0.059105359,0.018209082,0.018271678
3.972,0.023495916,0.02266832,0.059104890624999996,0.018210322,0.018273354
3.976,0.023496252,0.02266802,0.059111058593749995,0.018211662,0.018272684
3.98,0.023495615,0.022667281249999997,0.059114644531249996,0.018211898,0.018272314
3.984,0.023493,0.022666443,0.059110055,0.018210725,0.018273287109374998
3.988,0.023490249999999997,0.022669292968749997,0.059103078,0.018210824218749998,0.018275197265624998
3.992,0.023488373,0.022668656,0.059101906249999996,0.018209449,0.018270973
3.996,0.023487869,0.022665471,0.059105124999999994,0.018207438,0.018268156
4,0.023486965,0.022663426,0.059107941406249996,0.018207305,0.018268324
4.004,0.023485019531249998,0.022662855,0.059102105,0.018207506,0.018267922
4.008,0.02348398,0.02266242,0.059094863,0.018207203124999998,0.018268793
4.012,0.023481768,0.022660576,0.059092921874999996,0.018204689,0.018265976562499998
4.016,0.023479924,0.022660408,0.05909775,0.018204455,0.018267621
4.02,0.023478414062499998,0.022660777,0.059100968749999996,0.018204152,0.018268492
4.024,0.02347818,0.022661179687499998,0.059095972656249995,0.018203749999999998,0.018260580078124998
4.028,0.023477509765624998,0.022660408,0.059088461,0.018202912,0.018265006
4.032,0.023475396484374998,0.022660039062499998,0.05908732,0.018202979,0.01827275
4.036,0.023472213,0.022655883,0.059089535,0.018200096,0.018267318
4.04,0.023474023437499998,0.022656285156249997,0.059092148,0.018201002,0.018267822
4.044,0.023479287,0.022660408,0.059090742187499996,0.018204723,0.018269297
4.048,0.023475264,0.022660676,0.059084203,0.018203951,0.018265609
4.052,0.023468457031249997,0.022654809,0.059078906,0.01819966,0.018264369
4.056,0.023468859374999998,0.022652127,0.059081554687499996,0.018196811,0.018267453
4.06,0.023470435546874998,0.022653367,0.059084973,0.01819748,0.018267453
4.064,0.023471005859374998,0.022654541015624998,0.059081722656249995,0.018198955,0.018274996
4.068,0.023472345703124998,0.022653301,0.059074012,0.018197748,0.018274728515624998
4.072,0.023468457031249997,0.022652898,0.059073070312499996,0.018196375,0.018271645
4.076,0.023466982421874998,0.022651188,0.059076593749999996,0.018194229,0.018270839843749997
4.08,0.023468121,0.022649646484374997,0.059078703,0.018193021,0.018270570312499998
4.084,0.023466781,0.022649277,0.059074414,0.018192854,0.018268895
4.088,0.023466076,0.022648406,0.059066230468749994,0.018192553,0.018269363
4.092,0.02346534,0.022648004,0.059066398,0.018192686,0.018271207
4.096,0.023462891,0.022646326171874998,0.059072636718749995,0.018192686,0.018269128906249998
4.1,0.023461082,0.022646359374999998,0.059076828124999994,0.018192517578124998,0.018268324
4.104,0.02346098,0.022646929687499998,0.059074546874999995,0.018193087890624998,0.018270201
4.108,0.023459874999999998,0.022646193,0.059066566,0.018192316,0.018264604
4.112,0.023458533,0.022645756,0.059065226562499996,0.018192352,0.018262391
4.116,0.023457191406249998,0.022642437499999998,0.05906791,0.018191346,0.0182641
4.12,0.023455951,0.022639117,0.059070894531249994,0.018190307,0.018264033
4.124,0.023456018,0.022636604,0.059066301,0.018189334,0.0182641
4.128,0.023454543,0.022635967,0.059059156249999994,0.018189166015624997,0.018262391
4.132,0.023454477,0.022636436,0.059059156249999994,0.018188965,0.018258902343749998
4.136,0.023453939,0.022636201,0.059063652343749995,0.0181891,0.01825783
4.14,0.023452597656249997,0.022636436,0.059067809,0.018189132812499998,0.018254813
4.144,0.023452230468749998,0.022636201,0.059064589843749994,0.018188932,0.018256857421874998
4.148,0.02345052,0.022638146,0.059060734,0.018189434,0.018262322
4.152,0.023447736,0.022635162,0.059059425781249994,0.018186986328124998,0.018256556640624998
4.156,0.02344673,0.022630769531249997,0.059062207031249994,0.01818293,0.018251092
4.16,0.023447736,0.0226304,0.059068848,0.018183029,0.018250723
4.164,0.023448844,0.022631709,0.059066133,0.018184473,0.018252633
4.168,0.023451123046874998,0.022632682,0.059060332031249996,0.018184236,0.018259574218749998
4.172,0.023450822265624997,0.022630334,0.059059125,0.018182594,0.018258433593749998
4.176,0.023448207031249998,0.022625473,0.059061203124999996,0.018180549,0.018251794921874998
4.18,0.023449346,0.02262601,0.059066668,0.01818065,0.018249516
4.184,0.023449012,0.022625975,0.059062543,0.018180549,0.018247
4.188,0.023448240234374997,0.022627082,0.059056273437499994,0.018181656,0.018247771484374998
4.192,0.023447838,0.022627718749999998,0.059055167968749996,0.018181287,0.018250086
4.196,0.023448541015624998,0.022626847656249997,0.059058152343749996,0.018179813,0.018248576
4.2,0.023449949,0.022626847656249997,0.059063113281249996,0.018178605468749998,0.018248341796874998
4.204,0.023451793,0.022627316,0.059059227,0.018177633,0.018244822
4.208,0.023452162109374997,0.022626779,0.05905148,0.018177398,0.018245559
4.212,0.023453201,0.022626176,0.059050441406249994,0.018177264,0.018241168
4.216,0.023450218749999998,0.022624332,0.059053559,0.018175453124999998,0.018234092
4.22,0.023450251953124997,0.022625406,0.059059559,0.018175922,0.018240631
4.224,0.023452699218749998,0.022627484,0.059058488281249995,0.018176458984374998,0.018243514
4.228,0.023453167968749997,0.022627182,0.059051816,0.018174882812499998,0.018240027
4.232,0.023451525,0.022626076,0.059051078124999996,0.018173174,0.018237613
4.236,0.023451257812499997,0.022625707031249997,0.059055503906249994,0.01817334,0.018237479
4.24,0.023452666,0.022625406,0.059060531,0.018173273437499998,0.018236673828124998
4.244,0.02345233,0.022625539,0.059057984,0.018174012,0.018239189
4.248,0.023451558593749998,0.022625473,0.059051781,0.018174078,0.018239893
4.252,0.023450453,0.022623998,0.059050676,0.018173174,0.018237881
4.256,0.023450117187499998,0.022623762,0.059053895,0.018172703,0.018237547
4.26,0.023449916,0.022624969,0.05905966,0.018173306640624998,0.018239021
4.264,0.023450822265624997,0.022625473,0.059057246093749995,0.018173441,0.018237109374999998
4.268,0.023450218749999998,0.022625406,0.059049805,0.018172,0.018236439
4.272,0.023450186,0.022624936,0.059048363281249995,0.018170926,0.018236373
4.276,0.023449381,0.022623124999999997,0.059052386718749995,0.018170255859374998,0.018235971
4.28,0.023449883,0.022623527343749998,0.059057347656249995,0.018170523,0.018236373
4.284,0.023449984,0.02262517,0.059054999999999996,0.018172,0.01823235
4.288,0.023449012,0.022625473,0.059050105468749996,0.018172771,0.018234529
4.292,0.02344985,0.022624768,0.059049937499999997,0.018171496,0.018237145
4.296,0.023449984,0.022624232421874998,0.059054898437499996,0.018170826171874998,0.018237145
4.3,0.02345042,0.022625841796874997,0.059060902,0.018172771,0.018237646484374998
4.304,0.023450955,0.022626479,0.059058086,0.018173541,0.018234428
4.308,0.02345052,0.022626176,0.059052015624999996,0.018173105,0.01823701
4.312,0.023450588,0.022624635,0.059050105468749996,0.018172334,0.018235803
4.316,0.023449514,0.022623494,0.05905557,0.018172938,0.018233757812499998
4.32,0.023449615,0.022623461,0.059061336,0.018173306640624998,0.018233757812499998
4.324,0.023449111328124998,0.022623695312499997,0.059059425781249994,0.018174111,0.018234529
4.328,0.023448307,0.022623494,0.05905366,0.018172469,0.01823302
4.332,0.023447301,0.022623059,0.059052218749999996,0.018170156,0.01823084
4.336,0.023448273,0.022622422,0.05905775,0.018170559,0.018232283203124998
4.34,0.023449648437499998,0.022622488,0.059064289,0.018171294921874998,0.018233857
4.344,0.023449514,0.022622521484374998,0.059061875,0.018171027,0.018233523
4.348,0.023450083984374998,0.022623395,0.059055301,0.018169988,0.018232986
4.352,0.02345052,0.022622354,0.059054230468749996,0.018170055,0.018230674
4.356,0.023449012,0.022621181640624998,0.059058824,0.018170390624999998,0.018226381
4.36,0.023447168,0.022622422,0.059065262,0.018170793,0.018226012
4.364,0.023447469,0.022622723,0.059063484374999996,0.018171697265624998,0.018229668
4.368,0.023447736,0.022622119140624997,0.059057313,0.018171730468749998,0.018230941
4.372,0.023448507812499998,0.022621548828124997,0.059056273437499994,0.018170960937499998,0.018228729
4.376,0.023447904,0.022621717,0.059061672,0.01817049,0.018226047
4.38,0.02344918,0.022621885,0.059068211,0.018171966796874998,0.018227354
4.384,0.023450083984374998,0.022622689,0.059066031,0.018172502,0.018223966796874998
4.388,0.023449246093749997,0.022623326,0.059060266,0.0181721,0.018222727
4.392,0.023449414,0.022622554687499997,0.059060465,0.018171730468749998,0.018222426
4.396,0.023449984,0.022621348,0.059065191406249995,0.018170592,0.018223129
4.4,0.023451057,0.022621281,0.059070492,0.018169249999999998,0.018223531249999998
4.404,0.023449715,0.02262259,0.059067304687499995,0.018168916015624998,0.018222828
4.408,0.023448307,0.022623025,0.059059460937499995,0.018168916015624998,0.018221387
4.412,0.023447168,0.022621852,0.059056777,0.018167977,0.018220783
4.416,0.023447,0.022621014,0.059061269531249995,0.018167673828124998,0.018221654
4.42,0.023447703,0.02262232,0.05906784,0.018168715,0.018220648
4.424,0.023448576,0.022622119140624997,0.059066566,0.018167842,0.018219339843749998
4.428,0.023448507812499998,0.022621548828124997,0.05905966,0.018166199218749998,0.018217094
4.432,0.023448742,0.022621449,0.059059125,0.018164892578124998,0.01821592
4.436,0.023448675781249997,0.022620779296874997,0.059065394531249996,0.018164220703124997,0.01821525
4.44,0.023448207031249998,0.022620846,0.05907059,0.018164623046874998,0.018216021
4.444,0.02344834,0.022621113,0.059068914,0.018163551,0.018216256
4.448,0.023447334,0.022620846,0.059062343749999996,0.01816241,0.018215988281249998
4.452,0.023446630859374998,0.022620175781249998,0.059061941,0.018161572,0.018216961
4.456,0.023446328,0.022619336,0.059068008,0.018161539,0.018215049
4.46,0.023446564,0.022620509765624998,0.059072938,0.018162209,0.018208779296874998
4.464,0.023446630859374998,0.022621684,0.059070421874999994,0.018162076,0.018212937499999998
4.468,0.023446295,0.022621515624999998,0.059063684,0.018161371,0.018218502
4.472,0.023446060546874998,0.022619738,0.059061707,0.018160131,0.018215184
4.476,0.023447,0.022619002,0.059068175781249996,0.018160064,0.018214546874999998
4.48,0.023447,0.022619807,0.059074277343749995,0.018162143,0.018215586
4.484,0.023446195312499998,0.022619873,0.059071629,0.018163383,0.018213908
4.488,0.023445725,0.022620041,0.059064789,0.018163449,0.018215049
4.492,0.023445961,0.022620443,0.059063113281249996,0.018163650390624998,0.01821525
4.496,0.023447168,0.022618699,0.059068882812499994,0.018163617187499998,0.018213473
4.5,0.023447301,0.022617762,0.059074277343749995,0.018163852,0.018212736
4.504,0.023445826,0.02261833,0.059072871,0.018164691,0.018212803
4.508,0.023446664062499997,0.022618632812499997,0.059067273,0.01816335,0.018211227
4.512,0.023445457,0.022618029296874998,0.059066566,0.01816241,0.018213238
4.516,0.023442775,0.02261833,0.059071461,0.018162713,0.01821334
4.52,0.023442104,0.022618768,0.059076961,0.018163283,0.018215417968749998
4.524,0.023442472656249998,0.022619939453124998,0.059076121093749996,0.018164455,0.018216088
4.528,0.023442003906249998,0.022619672,0.059069484374999995,0.018164422,0.018214512
4.532,0.023443177734374997,0.022618599609374998,0.059066902,0.018163518,0.018211629
4.536,0.023443042968749998,0.022618599609374998,0.059072535156249995,0.018163785,0.01821002
4.54,0.023441466796874998,0.022619135,0.059078402343749996,0.018164254,0.018215082
4.544,0.023441601562499997,0.022619705,0.059076961,0.018164355,0.018217697
4.548,0.023443511718749997,0.022620879,0.059071226562499995,0.018164725,0.018216658
4.552,0.023446127,0.022619605468749998,0.059068445312499995,0.018163518,0.018215184
4.556,0.023445121,0.022621181640624998,0.059073375,0.018162846,0.018212835937499998
4.56,0.023445223,0.022622957031249998,0.059078938,0.018163953,0.018212334
4.564,0.023446630859374998,0.022624031,0.059076761718749995,0.018164691,0.018214346
4.568,0.023445391,0.022623226562499998,0.059069988,0.01816335,0.018213574
4.572,0.023445559,0.022621885,0.059067172,0.018161874999999997,0.018214748
4.576,0.023446865,0.022621785156249997,0.059071094,0.018161539,0.018214109
4.58,0.023446463,0.022622957031249998,0.059077027,0.018162846,0.018214713
4.584,0.023446865,0.02262393,0.059074714843749994,0.018162914,0.018214178
4.588,0.02344834,0.022624566406249998,0.059068078,0.018162846,0.018212367
4.592,0.023447805,0.022623091796874998,0.059066066,0.018161371,0.018208746
4.596,0.023446496093749998,0.022621918,0.059072102,0.018161271484374998,0.018208846
4.6,0.023446328,0.022622119140624997,0.059078636718749994,0.018162713,0.018208311
4.604,0.023445759765624997,0.022622791015624998,0.059076996,0.018163283,0.018208545
4.608,0.023443748046874997,0.02262393,0.059071765624999995,0.018163650390624998,0.018210958984374997
4.612,0.023442875,0.022624936,0.059070156,0.018162109,0.018212970703124998
4.616,0.023444316,0.022625908,0.059075285,0.018161572,0.018210824218749998
4.62,0.023446396,0.022624467,0.059079374999999996,0.018161271484374998,0.018210824218749998
4.624,0.023445793,0.0226245,0.059076426,0.018161137,0.018210791
4.628,0.023444150390624998,0.022624734,0.059069316406249996,0.018161438,0.018209785156249998
4.632,0.023446127,0.022624768,0.059066601562499994,0.018161002,0.018208443
4.636,0.023446865,0.022625205,0.059072336,0.018161438,0.018207337890624998
4.64,0.023445087890624997,0.022624802734374998,0.059077429687499995,0.018161539,0.01820841
4.644,0.023444619140624998,0.022627182,0.059076457031249995,0.018162041015624998,0.018209484374999998
4.648,0.023443076,0.022627617187499997,0.059068882812499994,0.018161338,0.018207674
4.652,0.023439623,0.022623560546874998,0.059065359374999994,0.018158587890624998,0.018207137
4.656,0.023439589843749997,0.022622085937499998,0.059070793,0.018157146484374997,0.018203951
4.66,0.02344026,0.022622455,0.059076625,0.01815718,0.018202811
4.664,0.023440126953124998,0.022623560546874998,0.059075453124999996,0.018157248046874998,0.018206332031249998
4.668,0.023438617,0.022624434,0.059069417968749996,0.018157314,0.018210656
4.672,0.02343674,0.022624332,0.059067238,0.018157047,0.018211428
4.676,0.023437242,0.022624299,0.059072504,0.018157248046874998,0.018211127
4.68,0.023439254,0.022625406,0.059079039,0.018157416,0.018209283
4.684,0.023440059,0.022627217,0.059077597656249994,0.01815775,0.018209215
4.688,0.023440529,0.022628791,0.059071461,0.018158756,0.018209785156249998
4.692,0.023443042968749998,0.022628255859374998,0.059067941,0.018158623,0.018207572
4.696,0.023442641,0.022627853515624997,0.059072,0.018158354,0.018209182
4.7,0.02344177,0.022628389,0.059078,0.018158924,0.018207104
4.704,0.023443244,0.02262849,0.059077766,0.018160197,0.018210893
4.708,0.023445457,0.022628255859374998,0.059072,0.018160131,0.018206701
4.712,0.023443949,0.022626578124999998,0.059068378906249996,0.018158287,0.018203047
4.716,0.023440629,0.022625238281249998,0.059071934,0.018157248046874998,0.01820868
4.72,0.023442271,0.022625103515624998,0.059077094,0.018156945,0.018209617
4.724,0.023443646,0.022625238281249998,0.059076726562499994,0.018157516,0.018210322
4.728,0.023443009765624998,0.022625238281249998,0.059070656,0.018156945,0.018211259765624998
4.732,0.023442641,0.022625406,0.059069719,0.018156846,0.018209617
4.736,0.023443478515624998,0.022625641,0.05907582,0.018156342,0.01820717
4.74,0.023444719,0.022626479,0.059083363281249995,0.018156611,0.018207875
4.744,0.023444283,0.022626311,0.059083098,0.01815775,0.018208779296874998
4.748,0.023444183593749997,0.022626613,0.059076691,0.018157683593749998,0.01820707
4.752,0.023443478515624998,0.02262698,0.059074582031249996,0.018158857,0.018205092
4.756,0.0234415,0.022625037,0.059078738281249994,0.018158656,0.018204621093749998
4.76,0.023441601562499997,0.022622857,0.059083363281249995,0.018157717,0.018207438
4.764,0.023441701,0.022620779296874997,0.05908132,0.018156978515624998,0.018207506
4.768,0.023441299,0.022620008,0.059074012,0.018155806640624998,0.018204254
4.772,0.023441166015624997,0.022621014,0.059072102,0.018156107421874998,0.018204621093749998
4.776,0.023441568359374998,0.022622287,0.059076593749999996,0.01815718,0.018202678
4.78,0.02344177,0.022621951171874998,0.059080383,0.018156576171874998,0.018200833984374998
4.784,0.023442205,0.022621951171874998,0.059079207,0.018157014,0.018200432
4.788,0.023441836,0.022622053,0.059072265624999995,0.018156677734374998,0.018200128906249998
4.792,0.023440863,0.022621548828124997,0.059069719,0.018157683593749998,0.018194898
4.796,0.023440328,0.022621650390624998,0.059074512,0.018159359,0.01820023
4.8,0.023439857421874998,0.022622287,0.059078102,0.018158587890624998,0.018204822
4.804,0.023439857421874998,0.022622824,0.059075519531249995,0.018159059,0.018204287109374998
4.808,0.023439087890624998,0.022622857,0.059068645,0.018159092,0.018202678
4.812,0.023441132812499998,0.022622521484374998,0.059064355468749996,0.018158756,0.018203146
4.816,0.023440697265624998,0.022621852,0.059066633,0.018159124999999998,0.01820308
4.82,0.023439926,0.022622891,0.059070523437499994,0.018160432,0.018200465
4.824,0.02344026,0.022624031,0.059067605,0.018161438,0.018201471
4.828,0.023439523,0.02262507,0.059059762,0.018161104,0.018203012
4.832,0.023437344,0.022625037,0.059056242,0.018160467,0.018201336
4.836,0.02343523,0.022623896,0.059060363,0.018160098,0.018200833984374998
4.84,0.023435197,0.022623729,0.059066230468749994,0.018160668,0.018199156249999997
4.844,0.023434058593749998,0.022621852,0.059062914,0.018158656,0.018193559
4.848,0.023433723,0.022622287,0.059055672,0.018158689453124998,0.01819785
4.852,0.023433555,0.02262202,0.059053191,0.018159494,0.018201236
4.856,0.023432248,0.022621885,0.059057715,0.018159762,0.018200666
4.86,0.023432380859374997,0.02262259,0.059062543,0.018159326,0.018199291
4.864,0.023433555,0.022622891,0.059060199,0.018160029296874998,0.018192553
4.868,0.023432212890624998,0.022622389,0.059051984,0.018159092,0.018199057
4.872,0.023432146,0.022620711,0.059047054687499996,0.01815584,0.018197748
4.876,0.023431476562499998,0.022618933593749998,0.059050742,0.018153559,0.018194967
4.88,0.023430738,0.022618164062499998,0.059056578124999995,0.01815433,0.018195871
4.884,0.023431443359374998,0.022618768,0.059055269531249996,0.018155639,0.018196375
4.888,0.023430804687499997,0.022619068359374998,0.059047961,0.018155035,0.018193725
4.892,0.023429464843749997,0.022618432,0.059044507812499994,0.0181546,0.018193559
4.896,0.023429464843749997,0.022618164062499998,0.059048934,0.018155203124999998,0.018193322
4.9,0.023429531,0.022618599609374998,0.059054164,0.018155101562499998,0.018193391
4.904,0.023430738,0.022619135,0.059052988281249996,0.018155203124999998,0.018193490234374998
4.908,0.023431374999999997,0.022620008,0.059045344,0.018155068,0.018191042968749998
4.912,0.023431006,0.02261833,0.05904159,0.018154498,0.018191478515624998
4.916,0.023431242,0.022616521,0.059045007812499994,0.018153324,0.018192586
4.92,0.023432380859374997,0.022616924,0.059050308593749996,0.018154129,0.018193624999999998
4.924,0.023433052734374998,0.022618768,0.059048797,0.018155135,0.018193624999999998
4.928,0.02343218,0.022619404,0.059041691,0.018154834,0.018192082
4.932,0.023432314,0.022619002,0.059037031,0.018153056640624998,0.01819101
4.936,0.023431074,0.022618531,0.059040582,0.018152486,0.018193391
4.94,0.023430168,0.022619002,0.059045578,0.018152318,0.018191109
4.944,0.023428559,0.022619203124999997,0.059044839843749995,0.018153089843749998,0.018192955
4.948,0.023429801,0.022619807,0.059039043,0.018152789,0.018192619140624998
4.952,0.023431141,0.022619438,0.059035555,0.018150643,0.018189535
4.956,0.023431476562499998,0.022618768,0.059039242,0.018149771,0.018186416015624998
4.96,0.023432046874999998,0.022617963,0.059044273437499996,0.018150307,0.018185311
4.964,0.023431576,0.022618096,0.059043902343749996,0.018151111,0.018188328
4.968,0.023428861328124998,0.022617828,0.059038035156249995,0.018151213,0.018191277
4.972,0.02343057,0.022617023437499998,0.059033711,0.018149436,0.018189334
4.976,0.023429564,0.022615516,0.059036324,0.018147826,0.01818665
4.98,0.023429264,0.022614107421874998,0.059042058593749995,0.018148597656249998,0.018186013671874997
4.984,0.023428795,0.022614273,0.059042160156249995,0.018149167968749998,0.018182828124999998
4.988,0.023427789,0.02261424,0.059035387,0.018148664,0.018182527343749998
4.992,0.023427051,0.022615113281249998,0.059031999999999994,0.018148195,0.018186248
4.996,0.023428393,0.022615984,0.059035753906249995,0.018147961,0.018187154
5,0.023427688,0.022615146484374998,0.059040719,0.018148061,0.018185679687499998
5.004,0.023427252,0.022615011718749998,0.059040617,0.018148061,0.018186818
5.008,0.023428357,0.022615078,0.059034214843749995,0.018147625,0.018186986328124998
5.012,0.023429398,0.022614309,0.059029820312499995,0.018147223,0.018184506
5.016,0.023428795,0.022613805,0.059033007812499996,0.018146184,0.018183131
5.02,0.023428225,0.022614777,0.05903857,0.018146585937499998,0.018183869
5.024,0.023428291015624998,0.022615381,0.059039543,0.018147457031249998,0.018185410156249998
5.028,0.023428492,0.022614844,0.059033375,0.018147324,0.018183667968749997
5.032,0.023427553,0.022614342,0.059029082,0.018147391,0.018183432
5.036,0.023426615,0.022612463,0.059032168,0.018147021484374998,0.018182225
5.04,0.023426447265624997,0.022611625,0.059037199218749996,0.018147021484374998,0.01817941
5.044,0.023426346,0.02261233,0.059037031,0.018146922,0.018182627
5.048,0.023426213,0.022612429687499998,0.059030996093749996,0.018145781,0.018180449
5.052,0.023424938,0.022611055,0.059027543,0.018145244,0.018179777
5.056,0.023424637,0.02261015,0.059031598,0.018144307,0.018179141
5.06,0.023423730468749997,0.022610652,0.059037465,0.018144037,0.01817857
5.064,0.023425541,0.022610619,0.059036828124999996,0.018144439453124998,0.018176795
5.068,0.023426514,0.022610619,0.059030996093749996,0.018144139,0.018176057
5.072,0.023425676,0.022609346,0.059026703124999996,0.018142059,0.01817391
5.076,0.023425006,0.022608976562499997,0.059029453,0.018140082031249997,0.018172871093749998
5.08,0.023425105,0.022610184,0.059034516,0.018139143,0.01817076
5.084,0.023425777,0.022609781,0.059032168,0.018139713,0.018171664
5.088,0.023425006,0.022609378906249998,0.059024156249999994,0.018140148,0.018173643
5.092,0.023421820312499998,0.022607970703124997,0.059018824218749995,0.018139209,0.018174078
5.096,0.023419842,0.022607703,0.059022379,0.018139176,0.018171832031249998
5.1,0.023419473,0.022608709,0.059028547,0.018140416,0.018172133
5.104,0.023419875,0.022609982421874997,0.059028648,0.018140752,0.018174279
5.108,0.023417697,0.022609613,0.059021773437499994,0.018141087890624998,0.018176961
5.112,0.023416221,0.022608709,0.059017348,0.018141253906249998,0.018175219
5.116,0.023416455,0.02260891,0.059021808593749996,0.018141455,0.018171730468749998
5.12,0.023416154,0.022609646,0.059028179687499994,0.018141893,0.018170994
5.124,0.023415886718749997,0.022610652,0.059027910156249995,0.018142361,0.018173576
5.128,0.023415852,0.022610721,0.059021406,0.018142830078124998,0.018175018
5.132,0.023415718749999998,0.022609613,0.05901668,0.018142764,0.018174916
5.136,0.023416121,0.022608406249999997,0.059018957,0.018142295,0.018175051
5.14,0.023414611328124998,0.022609145,0.059024055,0.018142662,0.018175753906249998
5.144,0.023417226562499997,0.022610049,0.059023449218749996,0.018141893,0.018172535
5.148,0.023418367,0.022610889,0.059016512,0.018141087890624998,0.018170592
5.152,0.023417662109374997,0.022611123046874997,0.059012422,0.018140047,0.018170559
5.156,0.023417965,0.022610083984374998,0.059015906,0.018140283,0.018167508
5.16,0.023417361,0.022609445,0.059020535,0.018140082031249997,0.018173777
5.164,0.023415283203124998,0.022610619,0.059021105468749994,0.018141053,0.018177801
5.168,0.023416557,0.022611223,0.059014602,0.018140818359374998,0.018175352
5.172,0.023418300781249998,0.022609883,0.059009035,0.018140316,0.018177029296874998
5.176,0.023417395,0.022608808593749998,0.059011480468749995,0.018140449,0.018177297
5.18,0.023415617187499998,0.022608205,0.059016578,0.018141121,0.018176861
5.184,0.023415215,0.022608139,0.059016914062499995,0.018142093749999998,0.018177029296874998
5.188,0.023414880859374997,0.022609111,0.059010742,0.018142127,0.018174916
5.192,0.023414611328124998,0.02261082,0.059007961,0.018141893,0.018174012
5.196,0.023412197,0.022608373046874998,0.05901091,0.018139443,0.018173273437499998
5.2,0.023411191,0.022607468749999998,0.059015809,0.018138104,0.018171664
5.204,0.023411494,0.022609078124999998,0.059016644531249995,0.018140416,0.018170088
5.208,0.023409683593749998,0.022607635,0.059010176,0.018141388671874998,0.018169988
5.212,0.023409683593749998,0.022607703,0.059007023,0.018140416,0.018172234
5.216,0.023411426,0.022607802734374998,0.059011648437499994,0.018140283,0.01817515
5.22,0.023409248046874997,0.022605624999999997,0.059016008,0.018138472656249998,0.018170121093749998
5.224,0.023407671874999997,0.022606229,0.059016242,0.018138472656249998,0.018170691406249998
5.228,0.023405559,0.022606462890624998,0.059009839843749995,0.018138707,0.018172736328124998
5.232,0.023405056640624998,0.022608139,0.059007258,0.018139008,0.018174547
5.236,0.023406498046874998,0.022608439,0.059010141,0.01813874,0.018174582
5.24,0.023407504,0.022606965,0.0590145,0.018138908203124998,0.018170424
5.244,0.02340908,0.0226071,0.059015003906249995,0.018139545,0.018171261718749998
5.248,0.02340908,0.022606664,0.059007359,0.018138271,0.018172904
5.252,0.023408242187499997,0.022606496093749998,0.059002597656249996,0.018137031249999998,0.018172369
5.256,0.023408008,0.022605256,0.059006887,0.018137299,0.018169016
5.26,0.02340727,0.022604584,0.059012890624999995,0.018138203,0.018168646
5.264,0.023406699,0.022603545,0.059012019531249994,0.018136996,0.018171061
5.268,0.023406564,0.022602607,0.059005781,0.018135387,0.018172469
5.272,0.023408041,0.022605223,0.059005078,0.018137398,0.018176357
5.276,0.02340633,0.022604719,0.059009066,0.018137299,0.018170826171874998
5.28,0.023404219,0.022600158203124998,0.059012621093749995,0.018135555,0.018162344
5.284,0.023403883,0.022600025,0.059011949,0.018136527,0.018168145
5.288,0.023404387,0.022601635,0.059005714843749994,0.018137734,0.018173441
5.292,0.023404050781249998,0.022601902343749997,0.059001421874999994,0.018136963,0.018168479
5.296,0.023401937499999997,0.022601668,0.059004574218749994,0.018135924,0.018168814453124998
5.3,0.023400967,0.022600728515624998,0.059011414062499996,0.018136227,0.018169049
5.304,0.023402408,0.022600025,0.059012656,0.018137734,0.018169887
5.308,0.023402507812499997,0.022600629,0.059005949,0.018137434,0.018169082
5.312,0.023399322265624998,0.022600761718749997,0.059001792968749994,0.018137768,0.018172369
5.316,0.02339892,0.022599891,0.059005613281249994,0.018137734,0.018171162
5.32,0.023399793,0.022599488,0.059011215,0.018137197,0.018170088
5.324,0.023398854,0.022599924,0.059013324218749996,0.018137800781249998,0.018169117
5.328,0.023397479,0.022600728515624998,0.059008765624999994,0.018138338,0.018170390624999998
5.332,0.023396172,0.022600227,0.059005445312499995,0.018138002,0.018169418
5.336,0.023396271484374998,0.022599824,0.059009300781249996,0.018137701,0.018167742
5.34,0.023396943,0.022601298828124998,0.059015874999999995,0.018138572,0.018168848
5.344,0.023395265624999998,0.02259932,0.059016109,0.018138908203124998,0.01816858
5.348,0.023395099609374997,0.022598314,0.059009066,0.018138539,0.018174246
5.352,0.023398049,0.02259932,0.059004977,0.018138305,0.018174949
5.356,0.023395199,0.022598918,0.059008094,0.018137701,0.018171396484374998
5.36,0.023395433593749997,0.022600427734374998,0.059015438,0.018138338,0.018171061
5.364,0.023394428,0.022600359,0.059015773437499995,0.018138875,0.018172267578124998
5.368,0.023393758,0.022601064,0.059010609374999995,0.018139779,0.018171598
5.372,0.02339359,0.022600158203124998,0.059007023,0.018138674,0.018168646
5.376,0.02339302,0.022598986328124997,0.059011012,0.01813874,0.018170658
5.38,0.023392953124999998,0.022599053,0.059017113,0.018139277,0.018171162
5.384,0.023393656,0.022598617,0.059017683593749995,0.018140047,0.018172267578124998
5.388,0.023393958984374998,0.022598248,0.059011715,0.018140517578124998,0.018171162
5.392,0.023394025,0.022597744,0.059007125,0.018139611,0.01816298
5.396,0.023393053,0.022598215,0.059010039,0.018138472656249998,0.01816526
5.4,0.023393422,0.022598416015624997,0.059016176,0.018138104,0.018169854
5.404,0.023395031,0.02259902,0.059016613,0.018137635,0.018169988
5.408,0.023395835937499998,0.022599755859374997,0.059009636718749994,0.018136428,0.018168547
5.412,0.023395568,0.022599992187499997,0.059004273,0.018135455078124998,0.018166736
5.416,0.023394127,0.022598749999999997,0.059007289062499996,0.018135723,0.018161639
5.42,0.023394059,0.022598818359374998,0.059012992187499995,0.018136227,0.018160332
5.424,0.023394529296874998,0.02259902,0.059014332,0.018136359374999998,0.018165295
5.428,0.023394596,0.02259902,0.059008027,0.018136695,0.018165461
5.432,0.023392818359374998,0.022599152343749998,0.059004375,0.018136729,0.018165629
5.436,0.023392986,0.022597879,0.059008531249999996,0.018137031249999998,0.018164289
5.44,0.02339416,0.022595063,0.059014668,0.018137232,0.018163785
5.444,0.023395031,0.022594693359374998,0.059017418,0.018137466796874998,0.018167541
5.448,0.023393992,0.022594426,0.059011917968749994,0.018137466796874998,0.018167139
5.452,0.02339416,0.022595800781249998,0.059007961,0.018137434,0.018168514
5.456,0.023394662,0.022596404296874997,0.059011785156249996,0.018137164,0.018169484
5.46,0.023395301,0.022597209,0.059019227,0.018137902343749998,0.018169351562499998
5.464,0.023396205,0.022597443,0.059021508,0.018139041,0.018170424
5.468,0.023397178,0.022596906,0.059015335937499996,0.018139812499999998,0.018171832031249998
5.472,0.023397346,0.022597242187499998,0.05901041,0.018139812499999998,0.01817143
5.476,0.023395501953124998,0.022596705078124998,0.059011851562499995,0.018137232,0.01817049
5.48,0.023393992,0.022595633,0.059017551,0.018135588,0.018171631
5.484,0.023394830078124998,0.022596134765624998,0.059018386718749996,0.018136025390624998,0.01817324
5.488,0.023395703,0.022596471,0.059011749999999995,0.018137398,0.018170826171874998
5.492,0.023391311,0.022595197,0.059006555,0.018136561,0.018166869
5.496,0.023387723,0.022593521,0.059008129,0.018134549,0.018171061
5.5,0.023385041,0.022593353515624998,0.05901423,0.018134582,0.018173441
5.504,0.023383096,0.022593521,0.059016211,0.018136460937499998,0.018177330078124998
5.508,0.023383801,0.022595934,0.059012188,0.018137768,0.018177934
5.512,0.0233836,0.02259399,0.059007055,0.018135723,0.018173742187499998
5.516,0.023385711,0.022592347656249998,0.059008734374999997,0.018134146,0.018169249999999998
5.52,0.023385813,0.022591711,0.059016074,0.018134215,0.018168881
5.524,0.023385777,0.022591341796874997,0.059017515624999996,0.018134684,0.018167977
5.528,0.023381654,0.022592279,0.059012992187499995,0.018135689,0.018170625
5.532,0.023380615,0.022590705,0.059008398,0.018133645,0.018169718749999998
5.536,0.02337991,0.022587688,0.059009371,0.018130627,0.018166232421874998
5.54,0.023378771484374998,0.02258648,0.059015839843749994,0.01813123,0.018170223
5.544,0.023380346,0.022587988,0.059018188,0.018132437499999998,0.018171766
5.548,0.023379207031249998,0.022588658,0.059012254,0.018132471,0.018171261718749998
5.552,0.023376289,0.022585708984374998,0.059005546874999995,0.018130156249999998,0.018166333984374998
5.556,0.023375988,0.022584568359374998,0.059006417968749995,0.018128883,0.018161438
5.56,0.023375553,0.022583832031249997,0.059011078,0.018128984,0.018165662109374998
5.564,0.023375183593749998,0.022583932,0.059012152,0.018128816406249998,0.018163852
5.568,0.023373708984374998,0.022584637,0.059007558593749995,0.018128246093749998,0.018161506
5.572,0.023373171874999998,0.022585842,0.059003871,0.018127576,0.018163046874999998
5.576,0.023373842,0.022584301,0.059006117,0.018125631,0.018160332
5.58,0.023373809,0.022583126953124998,0.059011883,0.018125330078124998,0.018159593749999998
5.584,0.023373640624999997,0.022584066,0.05901423,0.018127072,0.018161002
5.588,0.023372064453124997,0.022585172,0.059009468749999995,0.018128582,0.018160365
5.592,0.023371361,0.022583664062499998,0.059004710937499996,0.018127475,0.018160701171874998
5.596,0.023372031249999998,0.022583061,0.059008129,0.018127341796874998,0.018162344
5.6,0.023371932,0.022582992187499998,0.059014129,0.018126669921874998,0.018158656
5.604,0.023372199,0.022583463,0.059015906,0.018125295,0.018156375
5.608,0.023372199,0.02258343,0.059010105,0.01812449,0.018156744
5.612,0.023371460937499998,0.02258373,0.059004675781249995,0.01812315,0.018157582031249998
5.616,0.023370322,0.022582791,0.059007558593749995,0.018122445,0.018155101562499998
5.62,0.023370791,0.022581451,0.059014266,0.018122445,0.018154162
5.624,0.023371328,0.022581451,0.059015941406249994,0.018122613281249998,0.018154531249999998
5.628,0.023369887,0.022580445,0.059009906,0.018122277,0.018156576171874998
5.632,0.023370656,0.022579974609374998,0.059005246,0.018121439,0.018155068
5.636,0.023370355,0.022579473,0.059008699218749995,0.018121004,0.018155806640624998
5.64,0.02336992,0.022580445,0.059015371,0.018122346,0.018157984
5.644,0.023370355,0.022581049,0.059017582031249995,0.018122881,0.018151179687499998
5.648,0.023370455078124998,0.022582055,0.059012656,0.018122043,0.018150273
5.652,0.023369852,0.022581584,0.059007125,0.018121004,0.018152721
5.656,0.023371998,0.022579809,0.059009137,0.018121439,0.018155336
5.66,0.023373306640624997,0.022579371093749998,0.059015874999999995,0.01812134,0.018154732
5.664,0.023374042968749998,0.022580176,0.059019359,0.018121205,0.018155471
5.668,0.023375988,0.022580412,0.059013895,0.018120938,0.018154129
5.672,0.023375484374999998,0.022580814,0.059007859,0.018120031249999998,0.018151447
5.676,0.023374514,0.022580947265624998,0.059011078,0.018119863,0.018151480468749998
5.68,0.023374076171874997,0.022581316,0.059019328,0.018120634765624997,0.018154867
5.684,0.02337391,0.022581986328124998,0.05902184,0.018120266,0.018154230468749998
5.688,0.023373708984374998,0.022581887,0.059016042968749995,0.018118992,0.018151012
5.692,0.023373809,0.022581619,0.059011246,0.018117752,0.0181491
5.696,0.023374445,0.022582355,0.059014969,0.018117449218749998,0.018150375
5.7,0.023375117,0.02258373,0.059021273,0.018118019531249998,0.018147961
5.704,0.023375922,0.022584301,0.059022813,0.018118691406249998,0.018149133
5.708,0.023376893,0.022584938,0.059017918,0.018119058593749997,0.018150307
5.712,0.023377162,0.022585039,0.059013426,0.018119294921874998,0.018151279
5.716,0.023376994,0.0225844,0.059015738,0.018120601562499998,0.018149066
5.72,0.023374748046874998,0.022582959,0.059021676,0.018121439,0.018149436
5.724,0.023375385,0.022583898,0.059024223,0.018123082031249998,0.018153660156249998
5.728,0.02337649,0.022584199,0.059018691,0.018123652343749998,0.018152252
5.732,0.023375988,0.022583529,0.059013324218749996,0.018123082031249998,0.018152789
5.736,0.02337468,0.022584971,0.059016476562499996,0.01812352,0.018153828
5.74,0.023373809,0.022588525,0.059024492,0.018125330078124998,0.01815651
5.744,0.023372300781249997,0.022586379,0.059025796874999995,0.018124826,0.018152219
5.748,0.023370791,0.022583463,0.059019761718749994,0.018124893,0.01815024
5.752,0.023371629,0.02258316,0.059016242,0.018126,0.018148865
5.756,0.023370758,0.022581082031249998,0.059018355,0.018125697,0.01815215
5.76,0.023370188,0.02258068,0.059022613,0.01812449,0.018153393
5.764,0.023370188,0.022581316,0.059024156249999994,0.018123854,0.018151949218749998
5.768,0.023371697265624998,0.022582355,0.059019695312499995,0.018123385,0.018153795
5.772,0.023372266,0.022582055,0.05901423,0.018123049,0.018151145
5.776,0.023371998,0.022582424,0.059015839843749994,0.018124087890624998,0.018151883
5.78,0.023371898,0.022582959,0.059021305,0.018124559,0.01815215
5.784,0.023372736328124998,0.022583764,0.059022746093749995,0.018125396,0.018153258
5.788,0.023373138671874998,0.022583596,0.05901668,0.018125598,0.018154162
5.792,0.023374145,0.022581887,0.05900823,0.018124123,0.018153459
5.796,0.023375418,0.022581016,0.059007223,0.018122445,0.018150006
5.8,0.023375553,0.022580445,0.059011546874999994,0.018122916,0.018148597656249998
5.804,0.02337515,0.022579875,0.059011546874999994,0.018124625,0.018148363
5.808,0.023376087890624998,0.022580244,0.059003102,0.018123955,0.018149033203124998
5.812,0.023375686,0.022581049,0.058995457,0.01812258,0.018149937499999998
5.816,0.023373271,0.022580713,0.058995859374999994,0.018121943,0.018148564
5.82,0.023374478515624998,0.02258135,0.059002262,0.018123484,0.018149402
5.824,0.023376324218749998,0.022582289,0.059002699218749996,0.018124021,0.018149133
5.828,0.023376256,0.022583529,0.058996359374999995,0.018124961,0.01815091
5.832,0.023374346,0.022581283,0.05898684,0.01812315,0.018147658
5.836,0.023373205,0.022579505859374998,0.058986269531249996,0.018122145,0.018144842
5.84,0.02337334,0.022579205078124998,0.058991867,0.018122748046874998,0.018145580078124997
5.844,0.023374042968749998,0.022579572,0.058993679687499995,0.018124559,0.018145514
5.848,0.023375451,0.022581148,0.058988449218749996,0.018124961,0.018145379
5.852,0.023377765624999998,0.022583496,0.058982012,0.018125631,0.018148128906249998
5.856,0.023374646484374997,0.02258249,0.058982648,0.018125598,0.018149603515624998
5.86,0.023373607421874998,0.022579941406249998,0.058986335937499995,0.018123721,0.018149871
5.864,0.023375887,0.022581016,0.058986941,0.018124457,0.018151044921874998
5.868,0.023375721,0.022582021,0.058982918,0.018125262,0.018146585937499998
5.872,0.023371898,0.022578935546874998,0.058976246,0.018123553,0.018147859
5.876,0.023369047,0.022576119,0.058977016,0.018121306640624998,0.018150709
5.88,0.02336992,0.022576221,0.058981874999999996,0.018121037109374998,0.018150811
5.884,0.023370455078124998,0.022576353515624998,0.058981542968749995,0.018121271,0.018148631
5.888,0.023371496,0.022576756,0.058975273437499996,0.018121439,0.018146955
5.892,0.023372703124999998,0.02257632,0.058967292968749994,0.018120300781249998,0.01814625
5.896,0.023372869,0.022575416,0.05896766,0.018118322,0.018143869140624998
5.9,0.023372803,0.022574476562499998,0.058973929687499996,0.018117013671874998,0.018141926
5.904,0.023373238,0.022574678,0.058976175781249994,0.018116277,0.018141121
5.908,0.023374881,0.022574107,0.058971484374999994,0.01811574,0.018141725
5.912,0.023375082031249998,0.02257317,0.058963804687499996,0.018114836,0.018143064
5.916,0.023373205,0.022571326,0.058962734,0.018113392578124998,0.01814273
5.92,0.023373574,0.022570822,0.058968734,0.018113428,0.018141053
5.924,0.023373708984374998,0.022570186,0.058971316406249995,0.018113091796874998,0.018140851562499997
5.928,0.023372568,0.022570756,0.058967960937499994,0.018113527343749998,0.018140316
5.932,0.023371428,0.022570688,0.058963371093749994,0.018112521484374998,0.018136227
5.936,0.023369953,0.022568744,0.058963906249999996,0.01811041,0.018141253906249998
5.94,0.023370623,0.022568441,0.058970141,0.018110374999999998,0.018143301
5.944,0.023369685546874998,0.022568374999999998,0.058972859,0.018111549,0.018143099609374998
5.948,0.023369449218749998,0.022568643,0.058968129,0.018113091796874998,0.018145111328124998
5.952,0.023370188,0.022568309,0.058963469,0.018113729,0.018146117187499998
5.956,0.023368679687499998,0.022566396484374997,0.058963941,0.018112723,0.018143568
5.96,0.023369449218749998,0.022566732,0.058969238281249996,0.018113158,0.018143099609374998
5.964,0.023369013671874998,0.022567102,0.058970848,0.018114467,0.018144271
5.968,0.023365962890624998,0.022565324,0.058962332031249995,0.018113896,0.018145211
5.972,0.023364488281249998,0.022564285,0.058955054687499994,0.018113125,0.018148195
5.976,0.023363650390624997,0.022563379,0.058954586,0.018112085937499998,0.01814833
5.98,0.02336402,0.022563514,0.058958808593749995,0.018111314,0.018147424
5.984,0.023364656249999997,0.022564285,0.058959949218749995,0.018110879,0.018148531
5.988,0.023362074218749997,0.022564184,0.058952238,0.018111248,0.018150742
5.992,0.02335966,0.022563781249999998,0.058945464843749996,0.018111046874999998,0.018149805
5.996,0.023359156,0.022563345703124998,0.058944695312499996,0.018110611328124998,0.018146955
6,0.023358789,0.022562844,0.058947445,0.018110443,0.018145715
6.004,0.023357882812499998,0.022563379,0.058949691,0.018111617187499998,0.01814615
6.008,0.023355537109374998,0.022563514,0.058944726562499994,0.018112521484374998,0.018147658
6.012,0.023355435546874997,0.022563379,0.058938929687499995,0.018112455,0.018149637
6.016,0.023355738,0.022562441406249998,0.058938492,0.018110777,0.018145848
6.02,0.023356576171874997,0.022561838,0.058940703,0.018107894531249998,0.018141221
6.024,0.023356876953124998,0.022562474609374997,0.058942984,0.01810776,0.018140283
6.028,0.023357381,0.022563345703124998,0.058937219,0.018108766,0.018142898
6.032,0.023357111,0.022563748,0.058930949,0.018108264,0.018142596
6.036,0.023355469,0.022563178,0.058931785,0.018107123,0.018143099609374998
6.04,0.023355939,0.022562508,0.058935641,0.018108096,0.018142328
6.044,0.023356709,0.022562676,0.058937988,0.018110074218749998,0.01814102
6.048,0.023356508,0.022562775390624998,0.058932926,0.018110879,0.018143836
6.052,0.023355604,0.022564351562499998,0.058926757812499994,0.018110209,0.018146652
6.056,0.023355267578124998,0.022563613,0.058927664062499996,0.018109303,0.018147223
6.06,0.023354999999999997,0.022561838,0.058932188,0.018108531,0.018146787
6.064,0.023354631,0.022562273,0.058935309,0.018109135,0.018146082
6.068,0.023352553,0.022561602,0.058930078,0.018108297,0.018144607
6.072,0.023351211,0.022560965,0.058922031,0.018107357421874998,0.018142461
6.076,0.023351479,0.022560631,0.058922699,0.018106855,0.018141154
6.08,0.023352754,0.022560328124999997,0.058927094,0.018106051,0.018139478515624998
6.084,0.023351178,0.022559859374999998,0.058927996,0.018105381,0.018137902343749998
6.088,0.023349367187499998,0.022561199218749998,0.058923371093749996,0.018105146484374997,0.018139713
6.092,0.023347623,0.022561736,0.058917605468749995,0.018105045,0.01814159
6.096,0.023346886718749998,0.022560832,0.058919449218749996,0.018105279,0.01814434
6.1,0.023346650390624998,0.022560127,0.058925820312499995,0.018105111,0.018142227
6.104,0.023346082,0.022560463,0.058928769531249994,0.018106117,0.01814216
