time,F8,F4,Fz,F3,F7
0,0.061497453,0.047371031,0.11428182031249999,0.10729238281249999,0.052202594
0.004,0.061497488,0.047370727,0.11428343,0.107292148,0.052201422
0.008,0.061497957031249995,0.047370359,0.114284164,0.107292555,0.052200781249999995
0.012,0.061498324,0.047370796874999996,0.11428302343749999,0.10729349218749999,0.052199843749999995
0.016,0.061497656,0.047370593749999995,0.114281453,0.107293258,0.052199441
0.02,0.061497387,0.047369688,0.11428091406249999,0.10729274999999999,0.052198672
0.024,0.061497422,0.047369754,0.114282258,0.107292719,0.052198301
0.028,0.061497117,0.047369656249999996,0.11428389843749999,0.10729292187499999,0.052197933593749996
0.032,0.061497019531249995,0.047369855,0.114283461,0.10729321874999999,0.052196960937499995
0.036,0.061497019531249995,0.047369824218749995,0.11428389843749999,0.107293656,0.052196457
0.04,0.061496449,0.047368883,0.11428369531249999,0.107293656,0.052196792968749996
0.044,0.061496012,0.047369117,0.114284,0.10729432812499999,0.052197363
0.048,0.061495945312499994,0.047368785156249996,0.114285,0.10729473437499999,0.052197867
0.052,0.061495242,0.047368547,0.114285,0.107294898,0.052197965
0.056,0.061494203124999994,0.047369086,0.114283625,0.107295336,0.052198301
0.06,0.061492926,0.047368949,0.11428460156249999,0.107296508,0.052199207
0.064,0.061491555,0.047369285156249996,0.11428704687499999,0.10729751562499999,0.052199945312499996
0.068,0.061490445312499996,0.047369688,0.114288594,0.107298586,0.052198769531249994
0.072,0.061489777343749996,0.047370324218749996,0.11428882812499999,0.10729922656249999,0.052197328
0.076,0.061488433593749996,0.04737066,0.114288523,0.107299563,0.052197129
0.08,0.061487094,0.047370527343749996,0.114288891,0.10729972656249999,0.052197598
0.084,0.061486726562499996,0.047370125,0.114290469,0.107300898,0.052197328
0.088,0.061486421874999996,0.047369891,0.11429257812499999,0.107302406,0.052196792968749996
0.092,0.061486757812499994,0.047370125,0.114292883,0.10730321093749999,0.05219552
0.096,0.061486421874999996,0.047370727,0.114292211,0.10730374999999999,0.052194613281249996
0.1,0.061485718749999994,0.047370593749999995,0.11429231249999999,0.10730391406249999,0.052194078124999994
0.104,0.061485718749999994,0.047370258,0.114294758,0.10730478906249999,0.052194145
0.108,0.061485921874999995,0.04737009,0.11429824999999999,0.10730535937499999,0.052192805
0.112,0.061484949218749994,0.047370461,0.114297578,0.107305391,0.052191598
0.116,0.061482367,0.047370125,0.114296734,0.107306,0.052191496
0.12,0.061481359374999996,0.047369789,0.114296539,0.107306664,0.052191898437499995
0.124,0.061481293,0.047369688,0.114296367,0.107307742,0.052190824
0.128,0.061480891,0.047369824218749995,0.11429657,0.107308711,0.052188781249999996
0.132,0.061479886718749995,0.047370695312499995,0.114297109,0.107310289,0.052189383
0.136,0.061479852,0.047373211,0.11429932,0.107312469,0.052190960937499996
0.14,0.061479179687499996,0.047373476562499996,0.114300563,0.10731353906249999,0.052191262
0.144,0.061477035,0.047370695312499995,0.11429824999999999,0.10731428124999999,0.052190254
0.148,0.061474351562499994,0.047367812499999995,0.114296234,0.10731407812499999,0.052188613
0.152,0.061472844,0.047366234374999996,0.11429610156249999,0.10731353906249999,0.052187035
0.156,0.061471605468749996,0.047365496,0.114295328,0.10731357,0.052186703
0.16,0.061470632812499995,0.047366168,0.114294828,0.107314109,0.052186835937499995
0.164,0.061470297,0.047366871,0.114296539,0.10731532031249999,0.052186902
0.168,0.061469390624999995,0.047367609,0.11429924999999999,0.10731602343749999,0.052185996
0.172,0.061468316406249994,0.047366805,0.11429978906249999,0.107316422,0.05218566
0.176,0.061468082031249996,0.047366738,0.11429908593749999,0.107316828,0.05218573
0.18,0.061467480468749995,0.047366671874999995,0.114299523,0.10731692968749999,0.052185191
0.184,0.061466105,0.047365867,0.114300758,0.107317828,0.05218516
0.188,0.061465300781249996,0.047365496,0.114301969,0.107318773,0.052185093749999995
0.192,0.061465031249999996,0.047365766,0.114302875,0.10731950781249999,0.052184656249999996
0.196,0.061464226562499995,0.047365429687499995,0.114302133,0.10731950781249999,0.052184691
0.2,0.061464461,0.047365094,0.11430257031249999,0.10732054687499999,0.05218573
0.204,0.061463859,0.047364289062499995,0.114304547,0.10732242187499999,0.05218516
0.208,0.061461914,0.047363117,0.11430532,0.10732393,0.052184254
0.212,0.061461145,0.047362246,0.114305156,0.107325875,0.052184824218749995
0.216,0.061461512,0.047362210937499996,0.114304281,0.107327219,0.052185425781249996
0.22,0.061461074218749995,0.047363249999999996,0.114303375,0.107328125,0.052185328
0.224,0.061460438,0.047362883,0.11430331249999999,0.107328625,0.052184523
0.228,0.06145893,0.047361676,0.114303547,0.107328828,0.052183719
0.232,0.061457555,0.047361441406249996,0.11430414843749999,0.10732926562499999,0.05218268
0.236,0.061456582,0.047361777343749994,0.11430381249999999,0.107329898,0.052181973
0.24,0.061455543,0.047361473,0.11430414843749999,0.107330273,0.052182074
0.244,0.061455578,0.047361004,0.11430525781249999,0.107329703,0.052181137
0.248,0.061456953,0.047360973,0.114307063,0.107330906,0.052180598
0.252,0.061457758,0.047360738281249995,0.11430776562499999,0.107332719,0.052180835937499996
0.256,0.061457992,0.047360468749999995,0.114307102,0.107334766,0.052180800781249995
0.26,0.061457219,0.047359027,0.114306625,0.10733697656249999,0.052180464843749996
0.264,0.061456214843749996,0.047358793,0.114307164,0.10733892187499999,0.052179727
0.268,0.061456550781249994,0.047359027,0.11430763281249999,0.10733996093749999,0.052179793
0.272,0.061456887,0.047358793,0.114307234,0.107341867,0.052179660156249995
0.276,0.061457421874999994,0.047358457031249995,0.114306492,0.107343813,0.052179324218749996
0.28,0.061457421874999994,0.047359058593749996,0.11430742968749999,0.10734565624999999,0.052178855
0.284,0.061458058593749997,0.04735973,0.11430941406249999,0.10734830468749999,0.052177781
0.288,0.061457488,0.047358223,0.11431041406249999,0.107351023,0.052176777343749994
0.292,0.061455879,0.047358055,0.114311086,0.10735353906249999,0.052175906
0.296,0.061454804687499996,0.047358926,0.11431102343749999,0.10735689062499999,0.052175203
0.3,0.06145407,0.047359531249999996,0.11431152343749999,0.107360984,0.052175535
0.304,0.061453297,0.047358691,0.11431256249999999,0.10736490624999999,0.05217577
0.308,0.061451789,0.047357383,0.11431269531249999,0.107369734,0.052174195
0.312,0.061450379,0.047357785,0.114311828,0.107378648,0.052174195
0.316,0.061448234,0.047357719,0.11431165624999999,0.107389648,0.052175133
0.32,0.061446594,0.047357051,0.11431145312499999,0.107403461,0.052174465
0.324,0.061445484,0.047357551,0.11431243,0.107420898,0.052173761718749996
0.328,0.06144448,0.047358156,0.114313969,0.10743746093749999,0.052173859
0.332,0.061444078124999996,0.047358523,0.11431377343749999,0.107452273,0.052173793
0.336,0.061443171874999994,0.047358289062499996,0.11430991406249999,0.10746548437499999,0.052174195
0.34,0.061442266,0.04735809,0.114307164,0.10747759374999999,0.052175035
0.344,0.061441395,0.04735809,0.114306828,0.10748882,0.052175300781249996
0.348,0.061441128906249996,0.047358223,0.11430749999999999,0.107499281,0.052174597656249995
0.352,0.06144143,0.047357922,0.11430853906249999,0.10750953906249999,0.052174328124999995
0.356,0.061440793,0.047357117,0.114310984,0.107519133,0.052175300781249996
0.36,0.061439922,0.047356445312499995,0.114314203,0.107527984,0.052176207
0.364,0.061439484,0.047355371,0.114318031,0.107536797,0.052176609374999995
0.368,0.061439551,0.047355273,0.11432087499999999,0.107545281,0.052177949
0.372,0.061439281,0.047355707,0.114322016,0.107552758,0.052178387
0.376,0.061438578,0.047355675781249995,0.114322656,0.107560469,0.052179156
0.38,0.061438144531249995,0.047354836,0.11432372656249999,0.107567313,0.052179426
0.384,0.061437641,0.047354301,0.114325875,0.107573984,0.052178019531249994
0.388,0.061437473,0.047353797,0.114327484,0.10758045312499999,0.052176375
0.392,0.061437406,0.047353898,0.114328961,0.10758642187499999,0.052175468749999995
0.396,0.061437203,0.047354703124999994,0.11433003124999999,0.107591883,0.052175102
0.4,0.061436703,0.047354836,0.114329766,0.10759724999999999,0.052176375
0.404,0.061436266,0.047354566,0.11433194531249999,0.107602547,0.052177312499999996
0.408,0.061436367,0.047355203124999995,0.114333383,0.107607813,0.052177715
0.412,0.061435496,0.04735534,0.11433348437499999,0.10761243749999999,0.052178453124999996
0.416,0.061435461,0.047354734,0.114332414,0.10761720312499999,0.052178621093749995
0.42,0.061434926,0.047354535156249995,0.11433268,0.107621992,0.052177883
0.424,0.061433516,0.047353594,0.11433489062499999,0.10762604687499999,0.052176742
0.428,0.061432777343749995,0.047353863,0.11433700781249999,0.107629672,0.052176039
0.432,0.061432074,0.047354668,0.114337742,0.10763289062499999,0.052176105
0.436,0.06143023,0.04735507,0.114337906,0.107636109,0.052176574
0.44,0.061428453,0.047355875,0.114338109,0.107638688,0.052177617
0.444,0.061426309,0.047356175781249996,0.114338852,0.107641406,0.052177683593749996
0.448,0.061425535156249995,0.047356648437499996,0.11434035937499999,0.107644227,0.052178387
0.452,0.061425605,0.04735802,0.114339516,0.10764670312499999,0.052178722656249996
0.456,0.061424597656249996,0.04735809,0.11433667187499999,0.10764875,0.052177715
0.46,0.061423726562499996,0.047357887,0.11433522656249999,0.10765210156249999,0.052175234
0.464,0.061423523437499995,0.047357785,0.11433579687499999,0.107655523,0.052174597656249995
0.468,0.061421949218749994,0.047358121,0.11433563281249999,0.107657938,0.052176074
0.472,0.061420039062499994,0.047358390624999996,0.11433425781249999,0.107660016,0.052177113
0.476,0.061418832031249995,0.04735973,0.114332578,0.107661555,0.052177078
0.48,0.061417656249999994,0.047360703,0.114330805,0.107662258,0.052176339843749996
0.484,0.061416617187499994,0.047360336,0.114329797,0.10766380468749999,0.052176141
0.488,0.061415379,0.047360468749999995,0.114329766,0.10766574999999999,0.052176141
0.492,0.061414004,0.047361309,0.114328352,0.107666484,0.052176375
0.496,0.061411992,0.047361809,0.114325703,0.107666852,0.052176710937499995
0.5,0.061410148,0.047362546874999994,0.114324234,0.10766749218749999,0.052176777343749994
0.504,0.061408874999999995,0.047362546874999994,0.114323828,0.10766782812499999,0.052175839843749995
0.508,0.061407031,0.047361809,0.11432385937499999,0.107669266,0.052175168
0.512,0.061405621093749994,0.047362246,0.11432211718749999,0.107671008,0.052174398
0.516,0.061404012,0.047363484,0.114320211,0.10767285156249999,0.052174429687499996
0.52,0.061402703,0.047363555,0.114318969,0.107674266,0.052174195
0.524,0.061401968749999994,0.047363051,0.114317859,0.10767517187499999,0.052174129
0.528,0.061401664,0.047363051,0.11431551562499999,0.107675977,0.052175203
0.532,0.061401664,0.047363519531249995,0.11431152343749999,0.107677148,0.052175102
0.536,0.061401261718749996,0.04736382,0.114308508,0.10767774999999999,0.052175438
0.54,0.061400961,0.047363652,0.11430629687499999,0.107677445,0.052175234
0.544,0.061399484,0.047364055,0.11430589062499999,0.107677445,0.052175168
0.548,0.061399016,0.047364324,0.11430521874999999,0.107677313,0.052175300781249996
0.552,0.061399285,0.047363722656249996,0.11430257031249999,0.10767671093749999,0.052175133
0.556,0.061398210937499996,0.047363887,0.114300094,0.10767607,0.052174465
0.56,0.061397707,0.047364324,0.11429945312499999,0.10767587499999999,0.052173793
0.564,0.061397238281249995,0.047364929687499994,0.114300594,0.107675977,0.052172855468749994
0.568,0.061397141,0.047364929687499994,0.114300797,0.10767657812499999,0.052172922
0.572,0.061396,0.047363957,0.11430015624999999,0.107677109,0.052172453
0.576,0.061395531249999996,0.047364156,0.11430069531249999,0.10767741406249999,0.052171848
0.58,0.061395160156249996,0.047364324,0.11430236718749999,0.10767832031249999,0.052171378906249996
0.584,0.061393785,0.047363082031249996,0.114303742,0.10768,0.052170945312499994
0.588,0.061392781,0.047362781,0.114304453,0.10768127343749999,0.052169602
0.592,0.061392480468749996,0.047362984,0.114304984,0.107681672,0.052168898
0.596,0.061391539,0.047363351562499996,0.11430646093749999,0.10768234374999999,0.052168695
0.6,0.061390902,0.047363484,0.11430833593749999,0.10768284374999999,0.052168059
0.604,0.061391172,0.047363285,0.114310516,0.107683617,0.05216598
0.608,0.061390566,0.047362816,0.11431239843749999,0.107683953,0.052164977
0.612,0.061389094,0.047362480468749996,0.114313164,0.10768301562499999,0.05216434
0.616,0.061388789,0.047362848,0.11431377343749999,0.10768267968749999,0.052163703124999995
0.62,0.061388789,0.047363688,0.114313969,0.10768234374999999,0.052163031
0.624,0.061388523437499995,0.047362984,0.114315109,0.107682375,0.052162023437499996
0.628,0.061387348,0.047361710937499996,0.114315578,0.10768234374999999,0.052161723
0.632,0.061386375,0.04736191,0.11431443749999999,0.107682008,0.052161723
0.636,0.061386375,0.047363051,0.11431273437499999,0.107682039,0.052162695
0.64,0.061386343749999996,0.047362348,0.114311555,0.107681609,0.052163469
0.644,0.061386511718749995,0.047361977,0.11431199218749999,0.107681375,0.052164707
0.648,0.061387316406249996,0.047362883,0.114311055,0.107679227,0.052165145
0.652,0.06138698,0.047364660156249995,0.114309547,0.107669266,0.052165242187499995
0.656,0.061385371093749995,0.047365398,0.11430757,0.107648719,0.052166382812499995
0.66,0.061383257812499994,0.047367141,0.114306063,0.10762728906249999,0.052166382812499995
0.664,0.061381281249999996,0.04736818,0.11430555468749999,0.107607477,0.052166382812499995
0.668,0.061380476562499994,0.047367441406249995,0.11430381249999999,0.107589141,0.052167156
0.672,0.061379504,0.047366906,0.114301969,0.10757281249999999,0.052167758
0.676,0.061377156249999995,0.047367578,0.114300664,0.107556984,0.052167457031249996
0.68,0.061374945,0.047369453124999995,0.11429895312499999,0.107542805,0.052167926
0.684,0.061372563,0.047370125,0.11429730468749999,0.10753043,0.052167558593749996
0.688,0.061370383,0.047370492187499995,0.114295367,0.107518563,0.052167055
0.692,0.061368742,0.047370629,0.114293586,0.107508438,0.052165914
0.696,0.061367800781249995,0.047370996,0.114291977,0.10749746874999999,0.052164605
0.7,0.061366828124999995,0.047370961,0.114293656,0.107482453,0.052164977
0.704,0.061365789062499995,0.047370125,0.1142965,0.10746713281249999,0.052165242187499995
0.708,0.061365523,0.04737009,0.11429834374999999,0.10745341406249999,0.052164742187499995
0.712,0.061365789062499995,0.04737093,0.114298109,0.107440609,0.052165211
0.716,0.061365085937499994,0.047372035,0.11429784374999999,0.107428141,0.052166484374999995
0.72,0.06136368,0.047371363281249995,0.114297109,0.107416469,0.052167085937499996
0.724,0.061362070312499996,0.047370227,0.11429626562499999,0.107405539,0.052167992
0.728,0.061360695,0.047369957,0.11429687499999999,0.10739635156249999,0.052169168
0.732,0.061359152343749994,0.047370125,0.11429526562499999,0.107385891,0.05216957
0.736,0.06135818,0.047371129,0.114295164,0.10736872656249999,0.052169938
0.74,0.061356804687499995,0.047373109,0.114297109,0.10735071874999999,0.052170507812499996
0.744,0.061355999999999994,0.047374852,0.11430015624999999,0.107335703,0.052170609374999996
0.748,0.061355328,0.047375789,0.114302641,0.107323094,0.052171078
0.752,0.061353753906249996,0.047376628906249996,0.114303008,0.10731129687499999,0.05217309
0.756,0.061352078124999994,0.047377434,0.114302102,0.107299289,0.052174563
0.76,0.061349460937499996,0.047377835937499994,0.11430153124999999,0.107288625,0.052174297
0.764,0.061346578124999995,0.047378640624999996,0.114303141,0.10728031249999999,0.052173258
0.768,0.061344398437499996,0.047378640624999996,0.114304953,0.10727374218749999,0.052172585937499995
0.772,0.061341918,0.047378808593749995,0.114305789,0.10727159374999999,0.052172285
0.776,0.061340042968749994,0.047380148,0.11430746874999999,0.107272703,0.052171613
0.78,0.061338934,0.047381156,0.114309313,0.107273641,0.052171012
0.784,0.061338164,0.047381156,0.114309109,0.10727357812499999,0.052171109
0.788,0.061337293,0.04738102,0.114308641,0.107273477,0.052171480468749996
0.792,0.061335949,0.047380852,0.114307805,0.107272867,0.052171582
0.796,0.061335047,0.047380352,0.11430639062499999,0.107271734,0.052172352
0.8,0.061334477,0.047380148,0.114305789,0.107270727,0.052172484374999994
0.804,0.061333168,0.047380285,0.114305727,0.107269117,0.052172117
0.808,0.061331390624999996,0.04737948,0.11430505468749999,0.107268008,0.052170777343749995
0.812,0.061330249999999996,0.047380418,0.11430471874999999,0.10726653124999999,0.052169402
0.816,0.061330184,0.047382059,0.114304453,0.107264688,0.052169265624999996
0.82,0.061330652,0.047382496,0.114305523,0.107262141,0.052169336
0.824,0.061329348,0.047382027,0.114306625,0.107251109,0.052168863
0.828,0.061328141,0.047381656,0.114307195,0.107237164,0.052167926
0.832,0.06132673,0.04738102,0.114307602,0.10722586718749999,0.052168496093749996
0.836,0.061325523437499994,0.047380617187499995,0.114307164,0.107220633,0.052168059
0.84,0.061324988,0.047381254,0.114306867,0.107221742,0.052166418
0.844,0.061324687499999996,0.04738102,0.114307234,0.107223617,0.052164707
0.848,0.061324652343749994,0.047379847656249995,0.11430596093749999,0.107225633,0.052163199
0.852,0.061324550781249994,0.047379313,0.114302844,0.107228047,0.052162863
0.856,0.061324148437499997,0.04737884,0.11430153124999999,0.107230125,0.052162898
0.86,0.061323813,0.047378574,0.114301703,0.10723089062499999,0.052161824
0.864,0.061322977,0.047377266,0.114302641,0.10723092968749999,0.052160918
0.868,0.061321836,0.047376563,0.11430397656249999,0.10723039062499999,0.052159008
0.872,0.061320328,0.047376191,0.11430471874999999,0.107227914,0.052157867
0.876,0.061319188,0.047376262,0.114305289,0.107224758,0.052157499999999996
0.88,0.061319421874999995,0.047375488281249996,0.114305727,0.107221406,0.052157434
0.884,0.061319253906249996,0.047373644531249995,0.114306695,0.107218492,0.052156727
0.888,0.061318347656249994,0.047372973,0.11430867187499999,0.107215172,0.052156324218749994
0.892,0.061318347656249994,0.047374918,0.11430907812499999,0.107204305,0.052157195312499995
0.896,0.061318718749999994,0.047375554687499995,0.114308977,0.107185531,0.052157266
0.9,0.061318516,0.047375691406249996,0.114310016,0.107167125,0.052158203
0.904,0.06131875,0.047375891,0.11431135937499999,0.107151336,0.052157867
0.908,0.061318382812499996,0.047375691406249996,0.114312297,0.10713695312499999,0.052158437499999995
0.912,0.061317945,0.04737532,0.114311828,0.107123875,0.052158504
0.916,0.061317343749999996,0.047374918,0.114310516,0.107111367,0.052157969
0.92,0.061317043,0.047374918,0.114310648,0.10709862499999999,0.052156460937499996
0.924,0.061315667968749994,0.047374383,0.114312023,0.107087227,0.052154078124999996
0.928,0.061314059,0.047374551,0.114312094,0.107076266,0.052152234374999995
0.932,0.061313152343749996,0.047374449218749996,0.114310984,0.107065102,0.052152937499999996
0.936,0.061311644531249994,0.047373644531249995,0.114310016,0.107054609,0.052153176
0.94,0.061309969,0.047372641,0.114309477,0.10704481249999999,0.052152906
0.944,0.061309398437499996,0.047370695312499995,0.114308609,0.107035695,0.052152672
0.948,0.061309128906249996,0.047369254,0.11430807,0.10702664062499999,0.052152805
0.952,0.061308625,0.047367879,0.11430692968749999,0.107018266,0.052152672
0.956,0.061308359374999996,0.047366605468749996,0.114306125,0.107009844,0.052151531
0.96,0.061307218749999996,0.047365969,0.114305922,0.107003445,0.052149688
0.964,0.061306246093749996,0.047365129,0.11430243749999999,0.107003742,0.052147609
0.968,0.061304168,0.047363351562499996,0.114296977,0.10701239843749999,0.052145934
0.972,0.061301215,0.047362210937499996,0.114294758,0.107023359,0.052145293
0.976,0.061298434,0.047361641,0.11429784374999999,0.10703325,0.052144793
0.98,0.061296355468749994,0.047360938,0.11429592968749999,0.10704260156249999,0.052144488
0.984,0.061295417968749995,0.04735973,0.11429070312499999,0.107051352,0.052144289062499995
0.988,0.061295148437499995,0.047358758,0.114287953,0.107059766,0.052144390624999995
0.992,0.061293672,0.047358793,0.114286516,0.10706861718749999,0.052145227
0.996,0.061293035156249995,0.047358558593749996,0.11428480468749999,0.107075898,0.052146300781249995
1,0.061292699218749996,0.047358355468749995,0.11428480468749999,0.107082,0.052147374999999996
1.004,0.061292765624999995,0.047357617,0.11428476562499999,0.107088734,0.052147574
1.008,0.061292633,0.047357051,0.11428493749999999,0.10709450781249999,0.052148109374999994
1.012,0.061291894531249995,0.047356175781249996,0.114287688,0.107099898,0.052148715
1.016,0.061290687499999996,0.047355273,0.114291875,0.107105063,0.052149586
1.02,0.061290019531249997,0.047354871,0.114295328,0.107109289,0.052150391
1.024,0.061289917968749996,0.047354668,0.1142955,0.107113281,0.052151296874999996
1.028,0.061288609,0.047354199,0.114292914,0.107117672,0.05215257
1.032,0.061287269531249994,0.047354703124999994,0.11429214843749999,0.107121695,0.052154012
1.036,0.061287269531249994,0.04735668,0.114291508,0.107124781,0.052153711
1.04,0.061287738,0.047356883,0.11429057031249999,0.10712796093749999,0.052150492187499994
1.044,0.061288309,0.04735591,0.11429382031249999,0.107131617,0.052147609
1.048,0.061287941,0.047354398,0.11429617187499999,0.10713557812499999,0.052146637
1.052,0.061287203124999995,0.047353594,0.114296234,0.10714007,0.052145531249999995
1.056,0.061285594,0.047352555,0.114296938,0.10714409374999999,0.052145531249999995
1.06,0.061283516,0.047351652343749995,0.114297109,0.107148148,0.052145563
1.064,0.061282609,0.047351418,0.11429868,0.10715321093749999,0.052146300781249995
1.068,0.061282308593749994,0.047350746,0.11430062499999999,0.10715910937499999,0.052146031249999995
1.072,0.061281738,0.047349672,0.114298109,0.107165383,0.052144992187499996
1.076,0.061281367,0.047349809,0.114295164,0.10717205468749999,0.052144824
1.08,0.061280863,0.047349672,0.114294422,0.107178461,0.052144422
1.084,0.061281703124999996,0.047349406,0.11429646874999999,0.10718496093749999,0.052143586
1.088,0.061283113281249996,0.047349004,0.114299117,0.107192234,0.052143316
1.092,0.061283043,0.047347828,0.11430062499999999,0.107198805,0.052144558593749994
1.096,0.061283043,0.047348128906249995,0.114301898,0.10720528124999999,0.052145429687499995
1.1,0.061283648,0.047347762,0.114303781,0.10721205468749999,0.052145695
1.104,0.061285156,0.047347156,0.11430625781249999,0.107219125,0.052146402343749995
1.108,0.061285894531249996,0.047346086,0.114305656,0.10722586718749999,0.052146602
1.112,0.061286332031249995,0.047346621,0.11429945312499999,0.107232438,0.052147273437499995
1.116,0.061285859374999994,0.047346421874999996,0.11429459374999999,0.107239742,0.052147003906249996
1.12,0.061285594,0.047346050781249996,0.114290438,0.10724769531249999,0.052147874999999996
1.124,0.061286062499999995,0.047345648,0.114289297,0.107255266,0.052147809
1.128,0.061287035156249996,0.047345550781249995,0.11428925781249999,0.107263352,0.052147374999999996
1.132,0.061287168,0.047345313,0.11428701562499999,0.107271359,0.052148144531249996
1.136,0.061286297,0.047344375,0.114288359,0.10727864062499999,0.052148547
1.14,0.061284453,0.047342898437499996,0.114291672,0.107285313,0.052148347656249996
1.144,0.061282375,0.047342969,0.114294492,0.107291984,0.052148144531249996
1.148,0.061282207031249994,0.04734498,0.11429768,0.107300031,0.052148613
1.152,0.061282140624999995,0.047345984,0.114299219,0.10730673437499999,0.052148445
1.156,0.061282711,0.047347394531249996,0.114299688,0.107312969,0.052147874999999996
1.16,0.061282574,0.047346621,0.11429858593749999,0.10732088281249999,0.052147003906249996
1.164,0.061283011718749995,0.047346320312499995,0.114294758,0.10732956249999999,0.052147641
1.168,0.061283816,0.047346218749999995,0.114291711,0.10733959374999999,0.052149183593749995
1.172,0.061282910156249995,0.047344645,0.114289969,0.107350656,0.052149152
1.176,0.061283379,0.047344105468749995,0.11428775,0.107362258,0.052149886718749996
1.18,0.061283918,0.047345617,0.11428999999999999,0.107374758,0.052150828
1.184,0.061283984374999996,0.047345382812499996,0.11429489062499999,0.107387633,0.05215066
1.188,0.061284586,0.047343605,0.114297477,0.107400945,0.052149285156249996
1.192,0.061286496,0.047344344,0.114298445,0.107415664,0.052148613
1.196,0.061287402,0.047344676,0.11429928906249999,0.10743078906249999,0.052149219
1.2,0.061287906249999996,0.047345078124999995,0.11430012499999999,0.10744725,0.052150257812499996
1.204,0.061286969,0.047344645,0.114301602,0.107464617,0.052150359
1.208,0.061285359374999994,0.047345047,0.114302102,0.107480813,0.052150023
1.212,0.061286297,0.047345617,0.114301703,0.107497039,0.052149886718749996
1.216,0.061286734,0.047344777,0.11430123437499999,0.10751343,0.052149988
1.22,0.061286262,0.047344441,0.11430257031249999,0.107530766,0.052150257812499996
1.224,0.06128643,0.047344441,0.11430482,0.10754907,0.052149183593749995
1.228,0.061286898437499994,0.047345550781249995,0.11430482,0.10756718,0.052147809
1.232,0.061285828,0.047346050781249996,0.114305453,0.107585852,0.052148210937499995
1.236,0.061285894531249996,0.04734548,0.114305625,0.10760479687499999,0.052149015624999996
1.24,0.061285762,0.047345715,0.114305789,0.107624539,0.052148715
1.244,0.061285055,0.047344508,0.11430028906249999,0.107644359,0.052148848
1.248,0.061284555,0.047344476562499994,0.11429194531249999,0.10766313281249999,0.052150492187499994
1.252,0.061285223,0.047345550781249995,0.114286914,0.10768214062499999,0.052151296874999996
1.256,0.061285124999999996,0.047343805,0.11428510156249999,0.10770135156249999,0.052150257812499996
1.26,0.061285324,0.047342867,0.11428306249999999,0.107720133,0.052149316
1.264,0.061286801,0.047342195312499995,0.11428282031249999,0.107739742,0.052148582031249995
1.268,0.061286496,0.047342063,0.114279508,0.107758789,0.052149621
1.272,0.061285457,0.047342496,0.114281516,0.107777297,0.052151296874999996
1.276,0.061285457,0.047343137,0.114286711,0.10779731249999999,0.05215173
1.28,0.061285792968749996,0.047343941,0.11429057031249999,0.107817664,0.052150762
1.284,0.06128643,0.047343469,0.114293789,0.10783818,0.052150222656249995
1.288,0.061287672,0.047343203,0.114295367,0.10785943749999999,0.052150391
1.292,0.061288441,0.047343941,0.114295398,0.107881328,0.052150222656249995
1.296,0.061287438,0.047343973,0.11429607,0.10790453124999999,0.052150191
1.3,0.061286164062499995,0.047341625,0.114296406,0.107928031,0.052149015624999996
1.304,0.061285124999999996,0.047341793,0.114295797,0.10795183593749999,0.052146703
1.308,0.061284652343749996,0.047344105468749995,0.114292953,0.10797625,0.052146097656249994
1.312,0.061283246,0.047343703,0.114290031,0.10800099218749999,0.052146031249999995
1.316,0.061282375,0.047341625,0.11428721874999999,0.108026773,0.05214459
1.32,0.061282843749999996,0.047338777,0.114284531,0.108054031,0.052141707
1.324,0.06128375,0.047339078124999996,0.11428406249999999,0.108081594,0.052140566
1.328,0.06128566,0.047342063,0.114285203,0.108109852,0.052142949
1.332,0.061287101562499995,0.047343203,0.11428667968749999,0.10813838281249999,0.052143684
1.336,0.061287504,0.047341859374999996,0.11428832,0.108167188,0.052142210937499996
1.34,0.061286363,0.047339781,0.11428771874999999,0.108196891,0.052141273437499996
1.344,0.061285894531249996,0.047338273437499995,0.11428580468749999,0.108230352,0.052139664
1.348,0.061285996093749996,0.047338441,0.114287852,0.108265891,0.052138121093749996
1.352,0.061285258,0.047338874999999996,0.114290969,0.108301328,0.052137012
1.356,0.06128593,0.047337668,0.114293422,0.10833603124999999,0.052137316406249995
1.36,0.061286933593749995,0.047337301,0.114295031,0.108369625,0.052136207
1.364,0.06128643,0.047335925781249996,0.114296641,0.108402852,0.052134297
1.368,0.061285258,0.047334351562499995,0.114297109,0.10843581249999999,0.052134195
1.372,0.061285391,0.047334082031249995,0.11429768,0.108467961,0.052135504
1.376,0.061286465,0.047334383,0.11429985937499999,0.10849974999999999,0.052135402
1.38,0.061286867187499997,0.047334617,0.114301063,0.108529992,0.052134062499999995
1.384,0.061286664062499996,0.047334183593749996,0.11430270312499999,0.10855993,0.052134062499999995
1.388,0.061286969,0.047333512,0.114303141,0.10858933593749999,0.052134164062499995
1.392,0.061286598,0.047332773437499996,0.11430243749999999,0.108617328,0.052133124999999995
1.396,0.061286765624999996,0.047333277,0.11430166406249999,0.10864518749999999,0.052131582
1.4,0.061285960937499995,0.047333648,0.11430257031249999,0.108671578,0.05213175
1.404,0.061285559,0.047333812499999996,0.114305117,0.108697594,0.052131449
1.408,0.061286230468749994,0.047335222656249995,0.114306195,0.108722742,0.052130879
1.412,0.061285996093749996,0.047334719,0.11430482,0.10874754687499999,0.052129438
1.416,0.061285426,0.047334215,0.114304281,0.108772664,0.052126387
1.42,0.061282910156249995,0.047333042968749996,0.114303711,0.10879733593749999,0.052123167968749995
1.424,0.061278855,0.047330965,0.114302508,0.108821547,0.052121121
1.428,0.061276976562499995,0.047327043,0.11430049218749999,0.108846758,0.052120852
1.432,0.061275098,0.047323152,0.114298516,0.10887139843749999,0.052118539
1.436,0.061273992187499994,0.047323219,0.11429791406249999,0.10889537499999999,0.052115523
1.44,0.061275234374999994,0.047322113281249994,0.11429874999999999,0.108920484,0.052113512
1.444,0.061276105468749995,0.047319734,0.114299523,0.108947578,0.052110660156249995
1.448,0.061274593749999995,0.047316445,0.114298445,0.10897466406249999,0.052108715
1.452,0.06127141,0.047313027,0.11429607,0.10900108593749999,0.052109754
1.456,0.061270473,0.047313598,0.114296,0.10902730468749999,0.05211123
1.46,0.061270738,0.047314871093749995,0.11429784374999999,0.109052984,0.052109824218749996
1.464,0.06127141,0.047314972656249996,0.11429617187499999,0.10907917187499999,0.052109754
1.468,0.061272148,0.047314535,0.11429432031249999,0.109104516,0.052108816406249994
1.472,0.061273488281249996,0.047313094,0.114294422,0.109130234,0.052106871
1.476,0.061273859374999996,0.047313062499999996,0.11429472656249999,0.109155148,0.052105465
1.48,0.061273121,0.047313766,0.11429721093749999,0.109178914,0.052104523437499994
1.484,0.061273925781249995,0.047314769531249995,0.11429992187499999,0.10920322656249999,0.052103753906249994
1.488,0.061274527343749996,0.047313297,0.114300023,0.10922779687499999,0.052102949
1.492,0.061275367,0.047315375,0.114300188,0.109251539,0.052104594
1.496,0.061275835937499995,0.047315808593749994,0.114300023,0.109274,0.052106938
1.5,0.061276941,0.04731534,0.114297406,0.109295359,0.052108546874999995
1.504,0.061278820312499996,0.047316211,0.11429036718749999,0.109316883,0.052108012
1.508,0.061279691406249996,0.047317082,0.11428335937499999,0.10933733593749999,0.052107273
1.512,0.061281336,0.04731732,0.11427766406249999,0.10935711718749999,0.052108785
1.516,0.061283246,0.047318124999999996,0.11427525,0.10937582,0.052112137
1.52,0.061284352,0.047320906249999996,0.11427343749999999,0.109393023,0.052113242
1.524,0.061284320312499994,0.047323117,0.11427185937499999,0.10941142968749999,0.052111164
1.528,0.061283714843749997,0.047324492,0.114270352,0.10943014062499999,0.052112874999999996
1.532,0.061284218749999994,0.04732523,0.114268242,0.10944881249999999,0.052115355
1.536,0.061284387,0.047326941406249996,0.11426800781249999,0.10946587499999999,0.052115121093749994
1.54,0.061285156,0.047328148437499995,0.11426934374999999,0.109484188,0.052114984
1.544,0.061286598,0.047329121093749996,0.114269281,0.109502695,0.052114851562499995
1.548,0.06128784,0.047330395,0.114267773,0.10952059374999999,0.052115656249999996
1.552,0.06128841,0.047331566,0.11426505468749999,0.109538133,0.052116863281249995
1.556,0.061287773,0.047331800781249996,0.11426401562499999,0.10955536718749999,0.052118773437499995
1.56,0.061287605,0.047332641,0.11426464843749999,0.109573398,0.052119144531249995
1.564,0.061289648,0.047334652,0.114265789,0.109592844,0.05211834
1.568,0.061290789,0.047335925781249996,0.11426592968749999,0.109614477,0.0521175
1.572,0.061290387,0.047337367,0.11426817187499999,0.109637406,0.052117301
1.576,0.06129052,0.047338308593749996,0.114275047,0.10966717968749999,0.0521175
1.58,0.061291797,0.047338039,0.11428068,0.109720148,0.052117835937499996
1.584,0.0612925,0.047339347656249996,0.114284836,0.10977966406249999,0.052117199
1.588,0.061292633,0.047341625,0.11428882812499999,0.109835617,0.052115656249999996
1.592,0.061292129,0.047341191,0.114291141,0.10988828906249999,0.052116527343749997
1.596,0.061290421874999994,0.047340051,0.114292617,0.10993633593749999,0.052119344
1.6,0.061289246,0.047341996,0.11429389062499999,0.109980961,0.052120551
1.604,0.061288746,0.047343871093749997,0.11429583593749999,0.110022742,0.052118676
1.608,0.061289551,0.047344308593749995,0.114297578,0.11006330468749999,0.052117801
1.612,0.061289917968749996,0.047344945,0.11429932,0.11010270312499999,0.052119277
1.616,0.06128948,0.047345047,0.114301094,0.110139547,0.052120184
1.62,0.061289852,0.047345281249999996,0.114301266,0.110174891,0.052119445
1.624,0.061289281249999994,0.047345148,0.114301969,0.11020767968749999,0.052118773437499995
1.628,0.061288175781249996,0.047343269531249996,0.114301563,0.110238789,0.052119042968749994
1.632,0.061286832031249995,0.047342867,0.114301133,0.110268695,0.052118605468749996
1.636,0.061287738,0.04734498,0.11430069531249999,0.110297664,0.052117937499999996
1.64,0.061288910156249994,0.047344910156249996,0.114301469,0.11032642968749999,0.052117469
1.644,0.06128841,0.047343738,0.114303445,0.11035472656249999,0.052116593749999995
1.648,0.061288711,0.047342766,0.11430394531249999,0.110385273,0.052114551
1.652,0.061289953,0.04734243,0.114303711,0.110418227,0.052113945
1.656,0.061290758,0.047342699,0.11430043,0.110451961,0.052113477
1.66,0.061290019531249997,0.047343301,0.114300227,0.110485953,0.052111332
1.664,0.061290921874999994,0.047343871093749997,0.114304453,0.110520055,0.052109890624999995
1.668,0.061292129,0.047344375,0.11430729687499999,0.11055338281249999,0.052109789062499995
1.672,0.061293035156249995,0.047344879,0.11430921093749999,0.110580875,0.052109890624999995
1.676,0.061293136718749995,0.047345179687499996,0.11431219531249999,0.11060296874999999,0.052109957
1.68,0.061292933593749994,0.047346320312499995,0.11431551562499999,0.110623555,0.052110324
1.684,0.061293336,0.047346488281249995,0.11431829687499999,0.11064494531249999,0.052111297
1.688,0.061294711,0.047346824,0.114319305,0.110663555,0.052112305
1.692,0.061295984374999994,0.047349406,0.114316117,0.11068105468749999,0.052112671874999995
1.696,0.061296859,0.04735175,0.114313367,0.11069782,0.052113344
1.7,0.061297496093749994,0.04735202,0.11431692187499999,0.11071548437499999,0.052113277
1.704,0.061297996093749994,0.04734984,0.11432037499999999,0.110733859,0.052113008
1.708,0.061297797,0.047348801,0.114322352,0.110748781,0.052112805
1.712,0.061298668,0.047349472656249995,0.114322656,0.11076232,0.052111766
1.716,0.061299941406249996,0.047349504,0.114323492,0.11077607031249999,0.052111597656249994
1.72,0.061300812499999996,0.047348668,0.11432456249999999,0.110789617,0.052112137
1.724,0.061301953124999996,0.047347996,0.114324531,0.11080319531249999,0.052112070312499995
1.728,0.061301922,0.047347227,0.114325133,0.110816336,0.052112438
1.732,0.061301417968749994,0.047346621,0.11432600781249999,0.110828477,0.052112371
1.736,0.061300578,0.04734793,0.114325273,0.110840242,0.052111632812499996
1.74,0.061300246,0.047349336,0.114323828,0.11085298437499999,0.052111129
1.744,0.061301652,0.047349672,0.114322586,0.110865016,0.052111063
1.748,0.061302422,0.047348332031249996,0.11432161718749999,0.11087625,0.052110395
1.752,0.061303531249999994,0.047347762,0.11432107812499999,0.11088684374999999,0.05211009
1.756,0.061304637,0.047347324,0.11431953906249999,0.11089696874999999,0.052108648437499995
1.76,0.061304066406249996,0.047346621,0.114317727,0.110906359,0.052106805
1.764,0.061303934,0.047346453,0.114314172,0.11091625,0.052107207
1.768,0.061304168,0.047346621,0.11430857,0.110925703,0.052107007812499995
1.772,0.061303832,0.047347089843749995,0.11430414843749999,0.110935461,0.052105898
1.776,0.061303863281249996,0.047346589843749995,0.11430143,0.110945047,0.052104558593749996
1.78,0.061303664,0.047346355,0.114304984,0.110954367,0.052104359
1.784,0.061303227,0.047346285,0.11431135937499999,0.110962953,0.052104523437499994
1.788,0.061304602,0.047346117187499995,0.114315648,0.110971,0.052104426
1.792,0.061306781,0.047345953,0.11431879687499999,0.11098015624999999,0.052104523437499994
1.796,0.061309027343749996,0.047347023,0.114319469,0.110989172,0.052104156
1.8,0.061311074,0.047347895,0.114316047,0.110998359,0.052103082
1.804,0.061312246093749995,0.04734766,0.114311594,0.111008688,0.05210268
1.808,0.061312883,0.047347460937499995,0.114307906,0.111018344,0.052102246
1.812,0.061312816,0.04734766,0.11430394531249999,0.111028297,0.052102277343749996
1.816,0.06131198,0.047348128906249995,0.114301766,0.111038188,0.052101875
1.82,0.061312918,0.047348902,0.11430082812499999,0.111048445,0.052101304687499995
1.824,0.061314492,0.047349906,0.114299891,0.111057734,0.052102109
1.828,0.061314863,0.04735068,0.11429818,0.11106638281249999,0.052102914
1.832,0.061315296874999994,0.047351918,0.11429667187499999,0.111073664,0.052103988
1.836,0.061315499999999995,0.04735259,0.11429660156249999,0.111080672,0.052104859
1.84,0.061316137,0.047353059,0.114296906,0.111088211,0.052105429687499996
1.844,0.061316941,0.047352859,0.11429610156249999,0.111096594,0.052105094
1.848,0.061318382812499996,0.04735316,0.114294258,0.111106016,0.052106
1.852,0.061320124999999996,0.047354265624999996,0.11429228124999999,0.111116273,0.052107141
1.856,0.061321301,0.047355105,0.11429120312499999,0.11112629687499999,0.052107477
1.86,0.061321133,0.047353762,0.114291172,0.111136359,0.05210818
1.864,0.061320695,0.047352859,0.11429174218749999,0.11114711718749999,0.052108785
1.868,0.061319387,0.04735259,0.11429556249999999,0.11115972656249999,0.05211009
1.872,0.061318617,0.047353094,0.114302305,0.111175555,0.052111597656249994
1.876,0.061320124999999996,0.047355507812499996,0.114306828,0.111191375,0.052111164
1.88,0.061320863,0.047356648437499996,0.11431018,0.111206602,0.052109453124999996
1.884,0.061320562499999995,0.047356883,0.1143135,0.111221617,0.05210932
1.888,0.061320191406249995,0.04735782,0.11431625,0.111236469,0.052109387
1.892,0.061319891,0.047358390624999996,0.114319172,0.111251359,0.052110324
1.896,0.061319789,0.047359797,0.114324094,0.11126718,0.052112168
1.9,0.061320527,0.047360336,0.114327117,0.111282773,0.052112
1.904,0.061321066,0.047359496093749995,0.11432862499999999,0.11129856249999999,0.052110895
1.908,0.061322371093749994,0.04736,0.114329594,0.11131374999999999,0.052110359
1.912,0.061322640624999994,0.047360367187499995,0.11433127343749999,0.11132807,0.052110191
1.916,0.06132291,0.047361141,0.11433432,0.11134245312499999,0.052109992187499996
1.92,0.061323746,0.047360738281249995,0.11433663281249999,0.11135660156249999,0.052110727
1.924,0.06132284,0.047360031,0.11433891406249999,0.111370719,0.052111098
1.928,0.061323043,0.047361172,0.11434015624999999,0.11138489843749999,0.052111297
1.932,0.061323211,0.047361207,0.114339852,0.11139904687499999,0.052110863281249996
1.936,0.061322605,0.047360836,0.11434119531249999,0.11141306249999999,0.052110895
1.94,0.061322605,0.047360367187499995,0.114343875,0.11142700781249999,0.052109722656249996
1.944,0.061323445312499995,0.047359797,0.11434589062499999,0.11144078906249999,0.052109519531249995
1.948,0.061322875,0.047360031,0.11434679687499999,0.111454,0.052111063
1.952,0.061322605,0.047360234,0.11434779687499999,0.111466703,0.052110797
1.956,0.061322640624999994,0.047359898,0.11434924218749999,0.111478438,0.052110359
1.96,0.061321969,0.047361004,0.114350883,0.11148987499999999,0.052109152
1.964,0.061321469,0.047361844,0.11435310156249999,0.11150127343749999,0.052108246
1.968,0.061321133,0.047360031,0.11435396874999999,0.111512836,0.052107441406249996
1.972,0.061321801,0.047360234,0.114355313,0.111525313,0.052107375
1.976,0.061322304687499996,0.047362078,0.114356352,0.11153815624999999,0.052106133
1.98,0.06132093,0.047361844,0.11435712499999999,0.11155085937499999,0.052105297
1.984,0.061319859,0.047362883,0.114358492,0.11156410156249999,0.052104926
1.988,0.061319723,0.047364359,0.11435903124999999,0.111576109,0.052104523437499994
1.992,0.061319188,0.047365429687499995,0.11435990624999999,0.11158753906249999,0.052104894531249994
1.996,0.061319488281249994,0.047366503906249996,0.11436228124999999,0.111598398,0.052105664062499994
2,0.06131902,0.047366468749999995,0.114364328,0.111608961,0.052106234
2.004,0.061318918,0.047365699218749995,0.11436560156249999,0.111619391,0.052107039
2.008,0.061319387,0.047366066,0.11436634374999999,0.111630055,0.052107609374999996
2.012,0.061319624999999996,0.047366402343749996,0.114366406,0.111640781,0.052108383
2.016,0.061319086,0.047367008,0.114367313,0.11165036718749999,0.052107039
2.02,0.061319086,0.047367676,0.11436932812499999,0.11165911718749999,0.052105898
2.024,0.061319992,0.047367812499999995,0.114370602,0.111668172,0.052106203
2.028,0.061320527,0.047367105,0.114371336,0.11167719531249999,0.052106973
2.032,0.061320527,0.047366539,0.114372781,0.11168621093749999,0.052107578
2.036,0.061319824,0.04736627,0.114374789,0.111695938,0.052106300781249996
2.04,0.06132043,0.047365832,0.11437657,0.111705258,0.052103687499999995
2.044,0.061321301,0.047364660156249995,0.114376367,0.11171453906249999,0.05210191
2.048,0.061320695,0.047365766,0.114374625,0.111723727,0.052102277343749996
2.052,0.061319992,0.047366941406249995,0.114374117,0.111732813,0.052103855468749995
2.056,0.061319891,0.047368078,0.11437435156249999,0.11174122656249999,0.052105765624999995
2.06,0.061320359374999994,0.047367945,0.114372344,0.111749039,0.052107207
2.064,0.061321301,0.047366773437499995,0.114366406,0.111757789,0.052107375
2.068,0.061320695,0.047366468749999995,0.114360375,0.11176660937499999,0.052107980468749995
2.072,0.061320594,0.047365734374999996,0.11435658593749999,0.111775258,0.052108715
2.076,0.061321703124999995,0.047364996,0.114359805,0.111782938,0.052108851562499996
2.08,0.061321801,0.047364895,0.114364398,0.11179142187499999,0.052107980468749995
2.084,0.061320863,0.047364996,0.114363656,0.111801078,0.052106
2.088,0.061319824,0.047366503906249996,0.114357859,0.111810328,0.052106066
2.092,0.061319355468749996,0.047367542968749995,0.11435410156249999,0.111818547,0.052106402
2.096,0.061320292968749995,0.047368547,0.11435410156249999,0.111826594,0.052106203
2.1,0.061321301,0.047368883,0.11435450781249999,0.111835141,0.052105363
2.104,0.061321469,0.047368683593749995,0.11435310156249999,0.11184241406249999,0.052104023
2.108,0.061322304687499996,0.047368617187499996,0.114350547,0.111848414,0.052102816406249995
2.112,0.061322640624999994,0.047369422,0.114350547,0.11185375,0.052102883
2.116,0.061323109,0.047370227,0.114351891,0.11185971874999999,0.052102914
2.12,0.061323578,0.047370762,0.114352828,0.111865313,0.05210248
2.124,0.061323242187499995,0.047371602,0.11435078124999999,0.111869273,0.052101238
2.128,0.06132234,0.047372203,0.114350516,0.111873633,0.052101039
2.132,0.06132234,0.047371867,0.114352867,0.111878125,0.052101375
2.136,0.061323145,0.047372305,0.114356453,0.111882516,0.052101574218749995
2.14,0.061324046874999996,0.047372707031249996,0.11435970312499999,0.11188693749999999,0.052101441
2.144,0.061324887,0.047371934,0.114361617,0.11189113281249999,0.05210077
2.148,0.06132502,0.047371363281249995,0.114362586,0.11189515624999999,0.052101273
2.152,0.061324550781249994,0.047371766,0.11436406249999999,0.111899414,0.052102109
2.156,0.061325656,0.047371398,0.114367148,0.111904305,0.052102348
2.16,0.061325055,0.047370863281249995,0.11436982812499999,0.111908898,0.052101472656249995
2.164,0.061324719,0.047373512,0.114371539,0.111912523,0.052100031
2.168,0.061324148437499997,0.047374652,0.114372945,0.111915711,0.052099363
2.172,0.061323949,0.04737502,0.114373883,0.111919328,0.052098992
2.176,0.061323043,0.047375289,0.114375359,0.11192348437499999,0.052098961
2.18,0.061321636718749996,0.04737532,0.114377805,0.111927539,0.052099094
2.184,0.061321133,0.047375859374999996,0.114380086,0.111930727,0.052099460937499995
2.188,0.06132093,0.047376664,0.114381328,0.111933477,0.052100469
2.192,0.061320664062499995,0.047376328,0.114380758,0.11193635937499999,0.052100902
2.196,0.061320562499999995,0.04737616,0.114380961,0.11193900781249999,0.052101238
2.2,0.06132093,0.047375656249999995,0.114382133,0.111942398,0.052101172
2.204,0.061321301,0.047375055,0.11438260156249999,0.111945281,0.052100433593749995
2.208,0.061321234,0.047374281,0.11438273437499999,0.11194809374999999,0.052100031
2.212,0.061321164062499996,0.047375223,0.11438310156249999,0.11195191406249999,0.052099832031249994
2.216,0.061321601562499994,0.047375386718749996,0.11438451562499999,0.111955875,0.052099394531249996
2.22,0.061321734,0.04737502,0.11438612499999999,0.111959695,0.052098792968749995
2.224,0.061321301,0.047374652,0.114387063,0.111963352,0.052098156
2.228,0.061319891,0.047374449218749996,0.114386891,0.111967242,0.052098391
2.232,0.061318281249999995,0.047374852,0.114387359,0.11197116406249999,0.052098961
2.236,0.061317813,0.04737532,0.11438890624999999,0.111975625,0.052099262
2.24,0.061317777,0.047375891,0.114390547,0.111980586,0.052098656
2.244,0.061317578124999994,0.047375289,0.11439118749999999,0.11198477343749999,0.052098324
2.248,0.061317043,0.047376328,0.11439189062499999,0.111986953,0.052098992
2.252,0.061317511718749995,0.047377703,0.114392664,0.111989906,0.05209943
2.256,0.061318281249999995,0.047377667968749995,0.11439339843749999,0.111992922,0.052098726562499996
2.26,0.061318484374999996,0.047377234,0.11439467187499999,0.111996406,0.052097316
2.264,0.061319152343749996,0.047377637,0.114394906,0.11199892187499999,0.052096176
2.268,0.061319926,0.047379078124999995,0.11439550781249999,0.112001508,0.052096613281249995
2.272,0.06131875,0.047378773,0.114395445,0.112003383,0.052096914
2.276,0.061316906,0.047378605468749994,0.114397188,0.112004453,0.052096882812499995
2.28,0.061317410156249995,0.047378406,0.11439916406249999,0.11200646874999999,0.052096679687499994
2.284,0.061319152343749996,0.047377566406249995,0.114399266,0.112008781,0.052096578
2.288,0.061319691406249995,0.047378238,0.11439869531249999,0.11201049218749999,0.052097184
2.292,0.061319891,0.047378742187499996,0.114399195,0.112012297,0.052096679687499994
2.296,0.061320863,0.047378508,0.11440147656249999,0.112014008,0.052096211
2.3,0.061321301,0.047378039062499995,0.11440305468749999,0.11201585156249999,0.052095640624999995
2.304,0.061321703124999995,0.04737834,0.114404734,0.11201807,0.052094469
2.308,0.061322039,0.047378773,0.114404867,0.112019945,0.052093863
2.312,0.061321301,0.047378707031249995,0.114405398,0.112021555,0.052094301
2.316,0.061319758,0.047379410156249996,0.114406906,0.112022664,0.052095004
2.32,0.061319320312499995,0.047378707031249995,0.11440932031249999,0.112023969,0.052095406
2.324,0.061318684,0.047378676,0.1144105,0.112025242,0.052094969
2.328,0.061317645,0.047379511718749996,0.114411906,0.112026414,0.052095675781249996
2.332,0.061316672,0.047381156,0.114412742,0.112028094,0.052095238
2.336,0.061316605,0.047382027,0.11441375,0.112029469,0.052094566
2.34,0.06131657,0.047381324,0.11441475781249999,0.11203074218749999,0.05209393
2.344,0.061316101562499996,0.047381254,0.11441471874999999,0.112031609,0.052093664062499996
2.348,0.061315398437499995,0.047381589843749995,0.114414789,0.112032352,0.052092457
2.352,0.061314828,0.047381492,0.114414453,0.112032586,0.052091316
2.356,0.06131493,0.047381355,0.114414953,0.11203365624999999,0.052091316
2.36,0.061315433593749996,0.047381355,0.114416602,0.112035133,0.052090374999999994
2.364,0.061314960937499996,0.047380953,0.114417938,0.112036203,0.052089437499999995
2.368,0.061314023,0.047380753906249996,0.11441857812499999,0.112037781,0.052089941
2.372,0.061314257812499995,0.047381089843749995,0.114419719,0.112039523,0.052090813
2.376,0.061314527343749994,0.047381089843749995,0.114421297,0.112041438,0.052090777
2.38,0.061314996,0.047380586,0.114422633,0.112043578,0.052090374999999994
2.384,0.061315766,0.04738102,0.11442280468749999,0.11204642968749999,0.052088934
2.388,0.061316137,0.047381355,0.114423336,0.11204871093749999,0.052087961
2.392,0.061316972656249996,0.047382195,0.114424781,0.112050891,0.052088164
2.396,0.061317375,0.047382328,0.114425648,0.11205219531249999,0.052087293
2.4,0.06131657,0.047380652343749996,0.11442578906249999,0.11205327343749999,0.052084644531249995
2.404,0.061315836,0.04737998,0.11442662499999999,0.11205585156249999,0.052083973
2.408,0.061316672,0.047381589843749995,0.11442699218749999,0.112057898,0.052082699
2.412,0.061316406,0.047381492,0.11442642187499999,0.11205953906249999,0.052081289
2.416,0.061315266,0.047381089843749995,0.114427594,0.112060883,0.05208109
2.42,0.061314292968749996,0.047381589843749995,0.114429672,0.11206235937499999,0.052081761718749994
2.424,0.061313453,0.047382363,0.114430344,0.112063797,0.052082164
2.428,0.061312414062499994,0.047381792968749996,0.11442820312499999,0.112064672,0.052082766
2.432,0.061311008,0.047382297,0.11442716406249999,0.112065742,0.052083672
2.436,0.061310703,0.047383101562499995,0.114428836,0.112067656,0.052084176
2.44,0.061311344,0.047383367,0.11443135156249999,0.112070438,0.052082969
2.444,0.061311609,0.047382933593749996,0.11443279687499999,0.112073555,0.052082063
2.448,0.061311676,0.04738216,0.114434773,0.11207610156249999,0.05208243
2.452,0.061310973,0.047381355,0.11443674999999999,0.112078078,0.052083738
2.456,0.061309867,0.047381926,0.114439469,0.11207993,0.052083437499999996
2.46,0.061309195312499995,0.047383469,0.114441711,0.112082008,0.052081996
2.464,0.061308425781249995,0.047383668,0.11444235156249999,0.112084086,0.052082129
2.468,0.061308425781249995,0.047382999999999995,0.11443953124999999,0.112085156,0.052081793
2.472,0.061308691,0.047383301,0.114434906,0.11208596093749999,0.05208109
2.476,0.061308054687499995,0.047383769531249995,0.11443202343749999,0.112087266,0.052080586
2.48,0.06130809,0.047383402,0.114427969,0.112089445,0.052080453124999995
2.484,0.061307621,0.047383504,0.114422664,0.112091258,0.052079547
2.488,0.061305574,0.047382863,0.11441616406249999,0.11209219531249999,0.052079348
2.492,0.061303664,0.047382664062499996,0.114411836,0.112093539,0.052079312499999995
2.496,0.061302691,0.047382765624999997,0.11440932031249999,0.11209501562499999,0.052079613
2.5,0.061302422,0.047382496,0.11440761718749999,0.11209575,0.052079984
2.504,0.061302824218749996,0.047383836,0.11440603906249999,0.112096188,0.052079984
2.508,0.061302457,0.047385011718749995,0.114403992,0.112096859,0.052079613
2.512,0.061301082031249995,0.04738518,0.11440168,0.11209779687499999,0.052080285156249996
2.516,0.061300144531249996,0.047384406,0.114401008,0.11209890624999999,0.052081895
2.52,0.061298836,0.04738407,0.11440090624999999,0.112100141,0.052082063
2.524,0.061297496093749994,0.047385816406249996,0.114400375,0.112102289,0.05208166
2.528,0.06129659,0.047387124999999995,0.114398391,0.11210396874999999,0.052081289
2.532,0.061295082031249996,0.047387726562499996,0.114396516,0.11210467187499999,0.052081727
2.536,0.061294242,0.047388297,0.114396445,0.112106813,0.05208273
2.54,0.061292836,0.047387527,0.114395445,0.112109359,0.052084039
2.544,0.061291797,0.04738766,0.114393938,0.112110672,0.052084879
2.548,0.061291461,0.047388062499999994,0.114392258,0.112111039,0.052086086
2.552,0.061292398,0.047389,0.114391625,0.11211251562499999,0.052087023
2.556,0.061293906249999995,0.047389703124999995,0.11439202343749999,0.112114992,0.05208793
2.56,0.061294141,0.047388933593749995,0.114391719,0.11211707812499999,0.052088363
2.564,0.061294210937499996,0.047389,0.114390883,0.112119422,0.052087460937499996
2.568,0.061294445312499994,0.04738927,0.11438910937499999,0.112121469,0.052087257812499996
2.572,0.061294746,0.047389535156249996,0.11438816406249999,0.11212257031249999,0.052087460937499996
2.576,0.061294543,0.047389773,0.114388438,0.11212375,0.052087961
2.58,0.061294945312499995,0.047389703124999995,0.11438907,0.112124414,0.052088499999999996
2.584,0.061295749999999996,0.047389871,0.11439306249999999,0.112125359,0.052089437499999995
2.588,0.061295684,0.04738957,0.11439749218749999,0.11212679687499999,0.052090277
2.592,0.061294645,0.04738957,0.114400508,0.11212770312499999,0.052090344
2.596,0.061292699218749996,0.047389973,0.114403156,0.112128008,0.052090609
2.6,0.061291124999999995,0.047390507812499996,0.11440671093749999,0.112128508,0.052090609
2.604,0.061290656,0.047390711,0.11440965624999999,0.112129109,0.052090711
2.608,0.061290117,0.047391348,0.114410836,0.112129711,0.05209098
2.612,0.061289382812499994,0.047391617,0.114412008,0.11212968,0.05209202
2.616,0.061288508,0.047392152,0.114412508,0.11212968,0.052092891
2.62,0.061288508,0.047392753906249994,0.114409594,0.112129852,0.052093460937499995
2.624,0.061289078,0.047392890624999996,0.114404258,0.112130352,0.052093328
2.628,0.061289953,0.047392922,0.11439970312499999,0.112130516,0.052092656
2.632,0.061290285,0.047392555,0.114395945,0.11212978124999999,0.052091684
2.636,0.061290285,0.047391714843749995,0.114392961,0.11212928124999999,0.052091382812499996
2.64,0.06128975,0.047392219,0.114390953,0.11212867187499999,0.052091012
2.644,0.061288441,0.047393058593749995,0.114388805,0.112127734,0.052091382812499996
2.648,0.061288777343749996,0.047393226562499995,0.11438642187499999,0.112128438,0.052091785
2.652,0.061288609,0.047392922,0.114385953,0.11213018749999999,0.052092457
2.656,0.061287035156249996,0.047392753906249994,0.11438662499999999,0.112131391,0.052092320312499996
2.66,0.061285055,0.047393324,0.114388438,0.112131758,0.052092457
2.664,0.061284016,0.047394266,0.114389141,0.112132531,0.052094535156249996
2.668,0.061283078124999994,0.047393258,0.114387063,0.112133367,0.052095675781249996
2.672,0.061282039062499995,0.047392555,0.11438729687499999,0.11213380468749999,0.052095977
2.676,0.061281066406249994,0.047392285,0.11439285937499999,0.11213357,0.052095472656249996
2.68,0.061280965,0.047393492,0.11439732,0.11213538281249999,0.052095172
2.684,0.061279895,0.047394199218749995,0.114399336,0.112137695,0.052093664062499996
2.688,0.061278921874999996,0.047394934,0.11440225,0.11213977343749999,0.05209175
2.692,0.061278285156249994,0.047396007812499995,0.114405734,0.11214239062499999,0.052092121
2.696,0.061278117187499995,0.047396277,0.11440845312499999,0.112144938,0.052091785
2.7,0.061277746093749995,0.04739668,0.114410266,0.112148055,0.052090308593749995
2.704,0.061277211,0.047396980468749995,0.11441157031249999,0.112151242,0.052089504
2.708,0.061277379,0.047396007812499995,0.11441317968749999,0.112154289,0.05208957
2.712,0.061277445,0.047395875,0.11441442187499999,0.11215703906249999,0.052088531
2.716,0.061277144531249994,0.047395906249999994,0.11441663281249999,0.112159789,0.052088063
2.72,0.061277679687499996,0.047395406,0.114419047,0.112162836,0.052087125
2.724,0.061279121,0.047395238281249995,0.11442072656249999,0.11216501562499999,0.052086754
2.728,0.061279960937499996,0.047395004,0.114420016,0.11216482,0.052087425781249995
2.732,0.061279559,0.047395504,0.114417172,0.11216458593749999,0.052087695312499994
2.736,0.061278285156249994,0.047396445,0.114414148,0.11216397656249999,0.05208793
2.74,0.061278688,0.047396710937499996,0.11441107,0.112162703,0.052088332
2.744,0.061279121,0.047396512,0.114407109,0.11216193749999999,0.052088934
2.748,0.061278718749999996,0.047395473,0.11440275,0.112161227,0.052089738
2.752,0.061278652,0.047394765624999995,0.114398859,0.11216085937499999,0.052091047
2.756,0.061278453,0.047394800781249996,0.11439674999999999,0.112160797,0.052092188
2.76,0.061277781249999996,0.0473945,0.114396016,0.112160828,0.052093125
2.764,0.061277313,0.047395168,0.114395977,0.112160328,0.052091718749999995
2.768,0.061275902343749994,0.047395004,0.114394875,0.112159555,0.052089504
2.772,0.061274796874999995,0.047394129,0.114392898,0.112159016,0.05208984
2.776,0.061274262,0.047393660156249996,0.114391055,0.112159789,0.052090140624999996
2.78,0.061274027343749995,0.047392957031249995,0.11439044531249999,0.112160289,0.052089167968749996
2.784,0.061273254,0.047393895,0.114391289,0.112160391,0.052088601562499996
2.788,0.061272886718749996,0.047394566,0.114390914,0.11216022656249999,0.052087762
2.792,0.061272449,0.047394668,0.114390414,0.112159719,0.05208575
2.796,0.061273355,0.047395438,0.11439446874999999,0.112158852,0.052083234374999995
2.8,0.061273992187499994,0.047394836,0.114398859,0.112158383,0.052081222656249995
2.804,0.061274563,0.047394734,0.114399195,0.112159422,0.052081390624999994
2.808,0.061274227,0.047395941406249996,0.114395406,0.112160055,0.052082261718749995
2.812,0.06127416,0.047397316,0.11439272656249999,0.112159719,0.052082063
2.816,0.061273992187499994,0.047397851562499996,0.114391055,0.112159016,0.052080652
2.82,0.061274328,0.047396645,0.114388133,0.112158883,0.05207975
2.824,0.06127493,0.04739668,0.11438578906249999,0.11215895312499999,0.05208052
2.828,0.061275266,0.047397281,0.11438799999999999,0.112159789,0.052081258
2.832,0.061275332,0.047397249999999995,0.11439075,0.11216099218749999,0.052082699
2.836,0.061273824218749995,0.047397582031249996,0.114391352,0.11216156249999999,0.052083203
2.84,0.061272484,0.047396945,0.11439588281249999,0.11216176562499999,0.05208327
2.844,0.061271777,0.047395973,0.11440060937499999,0.112161797,0.05208357
2.848,0.061271746093749996,0.047395707,0.11440422656249999,0.1121615,0.052083672
2.852,0.061271476562499996,0.047395406,0.11440832031249999,0.11216002343749999,0.052084476562499996
2.856,0.061270641,0.047395570312499996,0.11441214062499999,0.11215961718749999,0.052084508
2.86,0.061269969,0.047395136718749994,0.11441559374999999,0.11216022656249999,0.052084008
2.864,0.061269969,0.047396543,0.114417305,0.112160625,0.052083335937499996
2.868,0.061269934,0.04739782,0.114417602,0.112161367,0.05208384
2.872,0.061268895,0.047397316,0.11441911718749999,0.112161328,0.052083335937499996
2.876,0.061267992187499995,0.047397582031249996,0.11442210156249999,0.11216089843749999,0.052082261718749995
2.88,0.061267488,0.047398121093749995,0.114425688,0.11216085937499999,0.05208243
2.884,0.061267387,0.047399191,0.114427766,0.11216002343749999,0.052082867
2.888,0.061267051,0.047398758,0.114428266,0.112159219,0.052082093749999996
2.892,0.061266953124999995,0.047398488,0.114429438,0.112157844,0.052081793
2.896,0.061266148437499994,0.047398457,0.114431453,0.112157141,0.052081359
2.9,0.061265039,0.047397917968749995,0.114433359,0.11215633593749999,0.052080754
2.904,0.061264371,0.047397719,0.11443396874999999,0.11215649999999999,0.052079648
2.908,0.061264035,0.047398422,0.11443202343749999,0.112156938,0.052078574
2.912,0.061263934,0.047399058593749994,0.114429008,0.112156398,0.052077738
2.916,0.061264371,0.047399395,0.11442836718749999,0.11215683593749999,0.052078039
2.92,0.061264570312499995,0.047399227,0.114427797,0.112157344,0.052078542968749995
2.924,0.061264234,0.047398625,0.11442642187499999,0.11215653906249999,0.052079042968749996
2.928,0.061263934,0.047397516,0.114426055,0.11215579687499999,0.052081593749999995
2.932,0.061264136718749994,0.047398222656249996,0.114423672,0.112156398,0.052083938
2.936,0.061263164,0.047398254,0.114419313,0.11215821093749999,0.052084644531249995
2.94,0.061262527,0.047398188,0.114416898,0.112159688,0.052085414062499995
2.944,0.061262761718749996,0.047398086,0.11441629687499999,0.11216035937499999,0.052085246093749996
2.948,0.061262527,0.047398926,0.11441405468749999,0.112161227,0.052085246093749996
2.952,0.061261687499999995,0.047399293,0.11441666406249999,0.112162336,0.052086086
2.956,0.061261687499999995,0.047398758,0.11441874218749999,0.11216347656249999,0.05208602
2.96,0.061261417968749995,0.04739832,0.114418211,0.11216562499999999,0.052086117187499996
2.964,0.061260480468749996,0.047397684,0.114418141,0.112166727,0.052085949
2.968,0.061259742,0.047397953124999996,0.114417938,0.11216757031249999,0.052085852
2.972,0.061258672,0.047398488,0.114422164,0.112169008,0.052086086
2.976,0.061258906249999995,0.047399395,0.11442642187499999,0.112171219,0.052085383
2.98,0.061259309,0.047399328,0.114429305,0.112171289,0.052083371
2.984,0.061259105,0.047398625,0.11442890624999999,0.112170922,0.052082832
2.988,0.061258433593749995,0.047399191,0.114422734,0.11217061718749999,0.052082566406249996
2.992,0.061257597656249996,0.047399929687499995,0.114417977,0.112170383,0.052081222656249995
2.996,0.061256691406249994,0.047400535,0.114415359,0.11217064843749999,0.05207968
3,0.061255887,0.047401406,0.11441351562499999,0.112171656,0.052078844
3.004,0.061256187499999996,0.047401742,0.11441193749999999,0.112172125,0.052079210937499995
3.008,0.061255082,0.04740134,0.11441301562499999,0.112172594,0.052079984
3.012,0.061253707,0.047401273437499995,0.11441609374999999,0.11217242968749999,0.052079547
3.016,0.061253172,0.047401203,0.11441609374999999,0.112172328,0.052079547
3.02,0.061254145,0.047400836,0.11441837499999999,0.11217310156249999,0.052078473
3.024,0.061254313,0.047401003906249996,0.114422164,0.112174539,0.052077535
3.028,0.061254714843749995,0.047400836,0.11442578906249999,0.112174742,0.052077570312499995
3.032,0.061254613281249995,0.047400602,0.114429438,0.112174609,0.052076934
3.036,0.061253742187499995,0.047400632812499996,0.114433031,0.112174242,0.052076429687499995
3.04,0.061252398437499994,0.047400469,0.114436883,0.11217357,0.052077300781249995
3.044,0.061251562499999995,0.047399664,0.114439227,0.11217326562499999,0.052078070312499995
3.048,0.061252066,0.047400632812499996,0.114439063,0.112174141,0.052079246093749997
3.052,0.06125193,0.047401070312499995,0.114435109,0.112174609,0.052079914062499996
3.056,0.061250555,0.04740077,0.11443068,0.112174945,0.052080484
3.06,0.061249718749999994,0.04740077,0.114428969,0.11217624999999999,0.052081359
3.064,0.061249382812499996,0.047400938,0.11443128124999999,0.11217665624999999,0.052081895
3.068,0.061249984,0.047400332,0.114434406,0.112176852,0.052081625
3.072,0.061250386718749994,0.047399527,0.114437422,0.112177891,0.052081023
3.076,0.061250789,0.047399261718749995,0.11444064062499999,0.112178297,0.052080922
3.08,0.061250523437499996,0.047399593749999996,0.11444425781249999,0.112178633,0.052080082031249995
3.084,0.061250121,0.047400535,0.114447141,0.1121795,0.052079816
3.088,0.061249316,0.047401137,0.114449055,0.11217990624999999,0.052079816
3.092,0.061247605468749994,0.047402277,0.11445200781249999,0.112180141,0.052079210937499995
3.096,0.061246367,0.047402379,0.114455523,0.112181078,0.052079547
3.1,0.061245089843749996,0.047401839843749995,0.11445803906249999,0.11218175,0.052079582031249995
3.104,0.061245023,0.047402949,0.114458008,0.112182383,0.052078406
3.108,0.061246063,0.047403586,0.114458211,0.112183023,0.052076297
3.112,0.061246769531249995,0.04740409,0.114459344,0.11218318749999999,0.052075523
3.116,0.061247172,0.047404355,0.114460859,0.11218339062499999,0.052075895
3.12,0.061246531,0.047404324218749995,0.11446307,0.112184164,0.052076629
3.124,0.061245828,0.047404324218749995,0.114463836,0.112184195,0.052076766
3.128,0.061245628906249995,0.047404457,0.114459211,0.112184367,0.052077871
3.132,0.061245324218749994,0.047404121,0.11445314062499999,0.112183328,0.052077973
3.136,0.061245562499999996,0.047404188,0.11445035937499999,0.11218268749999999,0.05207777
3.14,0.061245996,0.047404793,0.114449086,0.112182586,0.052077199218749995
3.144,0.061246464843749994,0.047405629,0.11444637499999999,0.11218305468749999,0.052077434
3.148,0.061247335937499994,0.047406301,0.114443922,0.11218392968749999,0.052076766
3.152,0.061248008,0.047406906,0.114443492,0.11218499999999999,0.052075055
3.156,0.061248242187499996,0.047407141,0.114443789,0.11218657812499999,0.052073344
3.16,0.061247707031249994,0.047405898437499996,0.114447273,0.112188289,0.052072339843749996
3.164,0.061245695312499994,0.047404422,0.114452242,0.11218919531249999,0.052072105
3.168,0.061244688,0.047404523,0.114456195,0.112190297,0.052072438
3.172,0.061244320312499996,0.047405563,0.114459719,0.112192578,0.052073277343749995
3.176,0.061243883,0.047405629,0.114463367,0.112194656,0.052074046874999995
3.18,0.061243383,0.047405195312499995,0.11446574999999999,0.11219620312499999,0.052074351562499996
3.184,0.061243246093749995,0.047404992187499995,0.114465719,0.11219807812499999,0.052073883
3.188,0.061243683593749994,0.047405328,0.114465484,0.112199922,0.052073378906249995
3.192,0.061244488281249995,0.047406234374999995,0.114467391,0.11220142968749999,0.052074383
3.196,0.061245863,0.04740573,0.11446960937499999,0.11220300781249999,0.052074551
3.2,0.061245695312499994,0.047404492,0.11447151562499999,0.112204313,0.052073175781249995
3.204,0.061245863,0.047404824218749995,0.114473563,0.112206859,0.052073445
3.208,0.061245395,0.047405128906249996,0.114474203,0.11220944531249999,0.052072438
3.212,0.061244589843749996,0.047404054687499995,0.114475102,0.11221259374999999,0.052071801
3.216,0.061244050781249997,0.047404054687499995,0.11447761718749999,0.112214945,0.052071871
3.22,0.061242813,0.047404793,0.114479461,0.11221678906249999,0.052071332
3.224,0.061242273437499994,0.047405395,0.114480164,0.11221853124999999,0.052071367187499995
3.228,0.061242176,0.047405796874999996,0.114481375,0.11221957031249999,0.052071871
3.232,0.061241703,0.047405832,0.114482648,0.112221141,0.052072438
3.236,0.06124157,0.047405531,0.114484094,0.112223289,0.052072304687499994
3.24,0.061242578124999995,0.047405395,0.11448543,0.112225641,0.052071300781249996
3.244,0.061243648,0.047404961,0.11448566406249999,0.11222741406249999,0.052070023437499995
3.248,0.061244188,0.04740573,0.11448583593749999,0.112228758,0.052069758
3.252,0.061243246093749995,0.047406335937499995,0.11448737499999999,0.112228922,0.052070394531249994
3.256,0.061242508,0.047406906,0.11449072656249999,0.11222965624999999,0.052069957031249996
3.26,0.061242242,0.047408816,0.114494281,0.112231133,0.052069758
3.264,0.061240898437499997,0.047409453,0.11449508593749999,0.112233117,0.052071602
3.268,0.061238586,0.047408012,0.114494648,0.112234656,0.052074184
3.272,0.061237648,0.047408246093749995,0.114497,0.112236469,0.052077535
3.276,0.061237781,0.047409117187499995,0.114499414,0.11223864843749999,0.052079078
3.28,0.061238484,0.047409285156249995,0.114501086,0.11224089062499999,0.052079312499999995
3.284,0.06123993,0.047409723,0.114500617,0.112243273,0.052078508
3.288,0.061240332,0.047409855,0.114499883,0.11224565624999999,0.052077871
3.292,0.061240296874999996,0.047410089843749996,0.11450229687499999,0.112247898,0.052077535
3.296,0.061239390624999994,0.047410594,0.114506219,0.112250383,0.052077234374999996
3.3,0.061239156249999996,0.047411398437499995,0.114508563,0.11225349999999999,0.052077434
3.304,0.061239691,0.047411633,0.114508367,0.112256883,0.052078473
3.308,0.061238957,0.047412402,0.11450487499999999,0.112259367,0.052079914062499996
3.312,0.061239425781249995,0.047412972656249996,0.11450001562499999,0.112263117,0.052081996
3.316,0.061239793,0.047412269531249995,0.114497102,0.112265398,0.052082363281249995
3.32,0.061239457,0.047412133,0.114498008,0.112267414,0.052081925781249996
3.324,0.06123909,0.047412371093749996,0.11449703124999999,0.112269758,0.052082934
3.328,0.061238789,0.047412437499999995,0.114497,0.112272172,0.052083402343749995
3.332,0.061238586,0.047413477,0.114496695,0.11227388281249999,0.052082898
3.336,0.061238484,0.047414617,0.11449653124999999,0.112276133,0.052083234374999995
3.34,0.061238183593749995,0.047415589843749995,0.114495555,0.11227874218749999,0.052084273437499995
3.344,0.061237816,0.047415050781249996,0.114498508,0.112280453,0.05208491
3.348,0.06123718,0.047414882812499996,0.11450102343749999,0.11228082,0.052085816
3.352,0.061235570312499994,0.047414949218749995,0.114503102,0.112281328,0.052087961
3.356,0.061234563,0.047414348,0.114505109,0.112282602,0.052089473
3.36,0.061234027,0.047414617,0.114507227,0.112282602,0.052090176
3.364,0.061233457,0.047414949218749995,0.11450889843749999,0.112282867,0.052090578124999995
3.368,0.061233523,0.047414816,0.11450923437499999,0.112283234,0.052090277
3.372,0.06123359,0.047415086,0.114509742,0.11228229687499999,0.052090879
3.376,0.061233324218749996,0.047415488,0.114508836,0.112281828,0.052091484
3.38,0.061232285156249996,0.047416124999999996,0.11450611718749999,0.112281625,0.052091887
3.384,0.061230676,0.047416695,0.114504609,0.11228105468749999,0.052093496
3.388,0.061229468749999995,0.047417265624999996,0.114505516,0.112280625,0.052093628906249995
3.392,0.061228929687499996,0.047417566,0.11450749218749999,0.11228139062499999,0.052093730468749995
3.396,0.061228929687499996,0.047417433593749996,0.11451047656249999,0.112282367,0.052092152343749996
3.4,0.061227890624999996,0.047417128906249995,0.114513289,0.11228317187499999,0.052090746
3.404,0.061227723,0.047417128906249995,0.11451442968749999,0.112283273,0.052091113
3.408,0.061227992,0.047417734,0.114512656,0.112282734,0.052092289
3.412,0.061228929687499996,0.047417801,0.114512656,0.112282664,0.05209316
3.416,0.061229636718749994,0.047417734,0.11451503906249999,0.112282898,0.052092320312499996
3.42,0.061229871,0.047417734,0.11451728124999999,0.11228283593749999,0.052091449218749995
3.424,0.061230039,0.047417836,0.114518391,0.11228257,0.052091617187499994
3.428,0.061229703,0.047417801,0.11451872656249999,0.112283102,0.052090207031249995
3.432,0.061228191,0.047417836,0.11451707812499999,0.11228350781249999,0.052089875
3.436,0.061226184,0.047418238,0.11451392968749999,0.11228471093749999,0.052090374999999994
3.44,0.061225074218749995,0.047418472656249995,0.114513023,0.112286422,0.052090609
3.444,0.06122377,0.047418238,0.11451201562499999,0.112287797,0.052091887
3.448,0.061223297,0.047419109,0.11451097656249999,0.11228947656249999,0.052093191406249996
3.452,0.06122377,0.047419445312499996,0.114509133,0.112290711,0.052092824
3.456,0.061223465,0.047419043,0.114507258,0.112291789,0.052090043
3.46,0.061224136718749995,0.04741807,0.114507125,0.11229363281249999,0.052087460937499996
3.464,0.061224172,0.047418137,0.11450507812499999,0.112295141,0.052086051
3.468,0.061224371,0.047418941,0.114502898,0.112295773,0.052085918
3.472,0.061224304687499995,0.04741998,0.114503734,0.112297148,0.05208575
3.476,0.061224438,0.047419813,0.11450400781249999,0.11229899218749999,0.052084008
3.48,0.061224035156249995,0.047419140624999995,0.11450383593749999,0.11230057,0.052082934
3.484,0.061222426,0.047419746,0.11450333593749999,0.11230167968749999,0.052083035
3.488,0.061220953,0.047420082,0.114503398,0.112302281,0.052083102
3.492,0.061220617,0.047420953,0.114502398,0.112302352,0.052083066406249996
3.496,0.061221621,0.047422124999999996,0.11450226562499999,0.11230204687499999,0.052081727
3.5,0.061222124999999995,0.047421656,0.11450082,0.112302617,0.052080219
3.504,0.061221891,0.047421926,0.114500086,0.112303555,0.05207968
3.508,0.06122152,0.047422328124999996,0.114500383,0.112304195,0.052079210937499995
3.512,0.061221152343749995,0.047420887,0.11450256249999999,0.112304055,0.052078542968749995
3.516,0.061220550781249994,0.047420953,0.11450192968749999,0.112303555,0.052077871
3.52,0.061219105,0.04742102,0.114500516,0.112303555,0.052077503906249996
3.524,0.061217598,0.047420984374999996,0.114499344,0.112304023,0.052077570312499995
3.528,0.061217363,0.047421891,0.11449877343749999,0.112304094,0.052078641
3.532,0.061216625,0.047422124999999996,0.11449994531249999,0.112304359,0.052079312499999995
3.536,0.061215555,0.047422828,0.114503305,0.11230516406249999,0.052078977
3.54,0.061215152343749996,0.047423301,0.114505781,0.112306805,0.052079042968749996
3.544,0.06121525,0.0474235,0.114505852,0.11230778124999999,0.052079210937499995
3.548,0.061215488281249994,0.047423703,0.11450487499999999,0.112308219,0.052079582031249995
3.552,0.06121552,0.047423902,0.114507258,0.112309219,0.052079277
3.556,0.061214918,0.047423938,0.11451117968749999,0.11231113281249999,0.052078710937499995
3.56,0.061214816,0.047423398,0.11451359374999999,0.112312203,0.052078105
3.564,0.061214347656249994,0.047422863,0.11451442968749999,0.112313242,0.052078641
3.568,0.061213476562499994,0.047423133,0.114515773,0.112313984,0.052079246093749997
3.572,0.061213574,0.047423566,0.114516813,0.112314516,0.052078742
3.576,0.061213476562499994,0.047422762,0.11451872656249999,0.112315758,0.052078945
3.58,0.061212434,0.047421992,0.11452073437499999,0.11231793749999999,0.052078875
3.584,0.061211195312499994,0.047421621,0.11452110156249999,0.11231910937499999,0.052078309
3.588,0.061209988281249995,0.047421824,0.114521672,0.11231981249999999,0.052078105
3.592,0.061209015624999995,0.04742273,0.11452308593749999,0.112320484,0.052077602
3.596,0.061208512,0.047423066,0.114525398,0.11232179687499999,0.052076965
3.6,0.061207605468749995,0.047422394531249995,0.11452690624999999,0.112323234,0.052076328124999995
3.604,0.061206937499999996,0.047422797,0.114527508,0.11232407,0.052076195
3.608,0.061205695312499996,0.047422996093749996,0.11452810937499999,0.11232387499999999,0.052076027
3.612,0.061204457,0.04742323,0.11453002343749999,0.11232491406249999,0.052076195
3.616,0.061203281,0.047422863,0.114532273,0.112326086,0.052076395
3.62,0.061202445,0.047422563,0.114533273,0.11232685937499999,0.052076058593749995
3.624,0.061201605468749996,0.047422762,0.11453461718749999,0.11232749218749999,0.052076934
3.628,0.061201406,0.047422996093749996,0.114535961,0.112327664,0.052077805
3.632,0.061200902343749995,0.047423031,0.11453662499999999,0.112328,0.052077805
3.636,0.061201406,0.047422226562499996,0.11453495312499999,0.112329273,0.052077234374999996
3.64,0.061202074,0.047421085937499996,0.114531938,0.112331117,0.052076328124999995
3.644,0.061202578,0.04742132,0.114531797,0.112331688,0.052074953
3.648,0.061202512,0.047421926,0.114533445,0.11233171874999999,0.052074249999999996
3.652,0.061201671874999995,0.047422828,0.11453592187499999,0.11233205468749999,0.052073781
3.656,0.061200668,0.047423433593749995,0.114538172,0.11233221874999999,0.05207341
3.66,0.061199895,0.047422996093749996,0.114540586,0.112332492,0.052074046874999995
3.664,0.061199695312499997,0.047422563,0.11454155468749999,0.112333633,0.052075019531249996
3.668,0.061199023,0.047423164062499995,0.114536461,0.11233457031249999,0.052075691
3.672,0.061198152,0.047423668,0.114529953,0.112335141,0.052075727
3.676,0.061198555,0.047423836,0.114525898,0.112335805,0.052074887
3.68,0.061199629,0.047423535156249995,0.11452204687499999,0.112335477,0.052073980468749996
3.684,0.061199563,0.047423066,0.11451935937499999,0.11233507,0.052074117
3.688,0.061198656,0.047422664062499995,0.114518789,0.11233507,0.052074484
3.692,0.061198051,0.047421758,0.11452006249999999,0.112335305,0.052073914
3.696,0.061196945,0.04742132,0.11452150781249999,0.112335477,0.052072339843749996
3.7,0.061196105,0.047421421874999994,0.114521711,0.11233664843749999,0.052071367187499995
3.704,0.061195539,0.04742159,0.11452325,0.11233718,0.052071031
3.708,0.061195168,0.047422059,0.11452543,0.11233698437499999,0.05207073
3.712,0.061194429687499996,0.047422664062499995,0.11452914843749999,0.11233735156249999,0.052070898
3.716,0.061194262,0.047422762,0.114531367,0.11233892968749999,0.052070898
3.72,0.061194129,0.047423902,0.11453404687499999,0.11233992968749999,0.052071332
3.724,0.061195605,0.047425175781249995,0.114536094,0.112340164,0.052070828124999996
3.728,0.06119691,0.04742491,0.114535484,0.1123405,0.052069621
3.732,0.061196746,0.047422762,0.11453371093749999,0.112340164,0.05206882
3.736,0.061196309,0.047421656,0.11453488281249999,0.1123405,0.05206875
3.74,0.061195305,0.047421055,0.114537,0.11234030468749999,0.052068719
3.744,0.061193961,0.047420984374999996,0.114537094,0.112339664,0.05206768
3.748,0.061193859,0.047422023437499995,0.114536961,0.1123395,0.052068348
3.752,0.061194164,0.047421789,0.11453823437499999,0.11233996874999999,0.05206932
3.756,0.061193624999999995,0.047421891,0.11454018,0.11233992968749999,0.052069422
3.76,0.061192555,0.047422094,0.114542195,0.11233989843749999,0.052070058593749996
3.764,0.061192219,0.047423265624999995,0.114543234,0.112340438,0.052070293
3.768,0.06119225,0.04742293,0.11454279687499999,0.112341242,0.052069691
3.772,0.061191582,0.047422059,0.114543438,0.112342516,0.052069422
3.776,0.061189836,0.04742273,0.114541828,0.112343352,0.052069355468749995
3.78,0.061188262,0.047422828,0.114542023,0.112344188,0.05206818
3.784,0.061185781249999995,0.047423398,0.114543164,0.112343758,0.052067277343749996
3.788,0.061185011718749995,0.04742407,0.114543805,0.11234338281249999,0.052067242187499994
3.792,0.061185648,0.047424406249999995,0.11454407,0.112343719,0.052067848
3.796,0.061186016,0.047424675781249995,0.114540078,0.112344094,0.05206798
3.8,0.06118625,0.047424172,0.114535523,0.11234412499999999,0.052067914
3.804,0.061185914,0.047424473,0.11453682812499999,0.112344391,0.052068984374999995
3.808,0.061186382812499995,0.047424941,0.114539141,0.112345297,0.052068684
3.812,0.061186820312499994,0.047425343749999994,0.11454175781249999,0.112346539,0.052066738
3.816,0.061185813,0.047424641,0.11454568,0.11234844531249999,0.052066875
3.82,0.061185343749999996,0.047423566,0.114547625,0.112350125,0.052067343749999995
3.824,0.061184742187499995,0.047424238281249996,0.114547961,0.112350664,0.052066906249999996
3.828,0.061184304687499996,0.04742407,0.11454765624999999,0.112351234,0.052067141
3.832,0.061182832031249995,0.047423332,0.11454628124999999,0.11235163281249999,0.052067074218749995
3.836,0.061179140624999996,0.047423535156249995,0.11454964062499999,0.112352609,0.052068417968749996
3.84,0.061175621,0.047425343749999994,0.11455225,0.112353945,0.052070496093749995
3.844,0.061172503906249995,0.047426285,0.114553188,0.112354586,0.052071367187499995
3.848,0.061170660156249994,0.047427457031249995,0.11455449999999999,0.112354922,0.052071836
3.852,0.061169488,0.047427656,0.114555977,0.112356258,0.052072539
3.856,0.061168749999999994,0.047427355468749995,0.11455768,0.112357672,0.052072070312499996
3.86,0.061168378906249994,0.047427926,0.114559258,0.11235917968749999,0.052071367187499995
3.864,0.061168749999999994,0.047428429687499996,0.114558758,0.112360953,0.052071332
3.868,0.061167710937499994,0.047428832,0.11455972656249999,0.112362266,0.052071836
3.872,0.061165832,0.047429402343749996,0.114561609,0.112362563,0.052070828124999996
3.876,0.061165226562499994,0.047428863,0.114564188,0.112364109,0.052070160156249996
3.88,0.061163687499999994,0.047428531249999996,0.114565563,0.11236453906249999,0.052069957031249996
3.884,0.061162512,0.047429668,0.11456566406249999,0.11236524218749999,0.05206959
3.888,0.061162414062499997,0.047429871,0.114565633,0.11236591406249999,0.052069824
3.892,0.061162277343749995,0.047429367187499995,0.114561742,0.11236665624999999,0.052071031
3.896,0.061160734,0.047429871,0.11455540624999999,0.112367492,0.052070762
3.9,0.061159094,0.047430710937499995,0.114550578,0.112368938,0.052070527
3.904,0.061159195,0.047431749999999995,0.114547625,0.11237064062499999,0.052070124999999995
3.908,0.061158758,0.047432183593749996,0.11454568,0.112370945,0.052070863
3.912,0.061156914,0.047431078,0.11454507812499999,0.11237174999999999,0.052070828124999996
3.916,0.061155304687499995,0.047430441406249996,0.114549203,0.112372391,0.052071434
3.92,0.061153996093749996,0.047429703,0.11455282,0.112372484,0.052073078
3.924,0.061154129,0.047428863,0.114555773,0.112373766,0.052074785
3.928,0.061153797,0.047429602,0.114559055,0.11237520312499999,0.05207509
3.932,0.061153023437499995,0.047429434,0.114561773,0.112376273,0.052073883
3.936,0.061151648,0.047428629,0.11456374999999999,0.112376141,0.052073378906249995
3.94,0.061150578,0.047428699218749995,0.114565359,0.11237644531249999,0.052073645
3.944,0.061149871093749995,0.047429133,0.114566836,0.11237805468749999,0.052074551
3.948,0.061149137,0.047429703,0.11456740624999999,0.112378961,0.052074953
3.952,0.061148734,0.047429637,0.11456968749999999,0.11238033593749999,0.052075422
3.956,0.061147625,0.047429102,0.11457196874999999,0.11238167187499999,0.052075691
3.96,0.061146921874999996,0.047429,0.11457283593749999,0.11238157,0.052074719
3.964,0.061146652343749996,0.047429434,0.11457257,0.11238171093749999,0.052073312499999996
3.968,0.061146855,0.047429637,0.11457317187499999,0.112382852,0.052072707
3.972,0.061146754,0.047429265624999994,0.114572203,0.112383891,0.052072273
3.976,0.061146050781249996,0.047429265624999994,0.11456616406249999,0.11238553124999999,0.052071265624999995
3.98,0.061144945,0.047429805,0.114559828,0.112387008,0.052069891
3.984,0.061143937499999995,0.047429938,0.114554563,0.11238838281249999,0.052068684
3.988,0.061143937499999995,0.047429973,0.11455097656249999,0.11238955468749999,0.052067007812499996
3.992,0.061144039062499995,0.04742977,0.114550305,0.112391195,0.052064797
3.996,0.06114434,0.047429,0.114554266,0.11239387499999999,0.052064292968749995
4,0.061144172,0.047428461,0.114559094,0.112395555,0.052064156
4.004,0.061143469,0.047428129,0.114562375,0.112395719,0.052064460937499994
4.008,0.061144074,0.047428261718749996,0.114564891,0.1123975,0.052065668
4.012,0.06114434,0.047428395,0.114566297,0.11239984374999999,0.052067109
4.016,0.06114357,0.047427523,0.11456777343749999,0.112400953,0.052068148437499996
4.02,0.061142699,0.047427457031249995,0.114569219,0.112402227,0.052068281
4.024,0.061141895,0.047427895,0.11456925,0.11240279687499999,0.052067813
4.028,0.061142464843749994,0.047427691,0.114565227,0.112403969,0.052068516
4.032,0.061142598,0.047427289062499996,0.114559531,0.112404977,0.052069219
4.036,0.061143434,0.047426316406249995,0.11455637499999999,0.112405813,0.052068417968749996
4.04,0.061144508,0.047425715,0.114554563,0.112407625,0.052068148437499996
4.044,0.061144808593749995,0.047424539,0.11455574218749999,0.11240896874999999,0.052068652
4.048,0.061144074,0.047425746,0.114559531,0.11241064062499999,0.052069457031249995
4.052,0.061142230468749996,0.047426922,0.11456304687499999,0.112412352,0.052069121
4.056,0.061140551,0.047427187499999995,0.114565727,0.112414797,0.052068449
4.06,0.061138773437499995,0.047426184,0.11456774218749999,0.112416711,0.05206741
4.064,0.061138406,0.047424539,0.11456881249999999,0.112419898,0.052066972656249995
4.068,0.061138539,0.047425578,0.11457032,0.11242257812499999,0.052066809
4.072,0.061138808593749996,0.047427019531249996,0.114572398,0.11242432031249999,0.052065969
4.076,0.061139042968749994,0.047427187499999995,0.114572602,0.112426336,0.052065097656249996
4.08,0.061139578124999996,0.047427121093749997,0.11456864843749999,0.112428375,0.052064695
4.084,0.061139042968749994,0.047427492187499996,0.114563484,0.112430891,0.052064695
4.088,0.061137566406249996,0.047427625,0.11456080468749999,0.11243374218749999,0.052063992
4.092,0.061136796874999996,0.047427625,0.114562945,0.11243656249999999,0.052063656
4.096,0.061135992187499995,0.047428058593749996,0.114567336,0.112438977,0.052062414
4.1,0.061134886718749996,0.047429503906249997,0.114570125,0.11244142187499999,0.052061074218749996
4.104,0.061134215,0.047429973,0.114571867,0.112443266,0.052062047
4.108,0.061132707,0.047429102,0.114573273,0.11244460937499999,0.05206275
4.112,0.061131367,0.047428597656249995,0.114575555,0.11244678124999999,0.052062617
4.116,0.061130996093749994,0.047428934,0.11457732812499999,0.112449703,0.052062684
4.12,0.061130293,0.047428832,0.114577969,0.112452383,0.052063621
4.124,0.061130328124999994,0.047428664,0.114578172,0.11245443,0.052065297
4.128,0.061129855468749994,0.047428863,0.11457927343749999,0.112456109,0.052067645
4.132,0.061129488,0.047429871,0.114581086,0.11245814843749999,0.05206875
4.136,0.061130058593749995,0.047430339843749995,0.11458088281249999,0.112461031,0.052068249999999996
4.14,0.061129957031249994,0.047430710937499995,0.11457743,0.112463719,0.052068281
4.144,0.061128984,0.047431078,0.11457400781249999,0.11246556249999999,0.052069085937499995
4.148,0.061128551,0.047431480468749995,0.114572305,0.112467703,0.052070426
4.152,0.061128148437499995,0.047431378906249995,0.11457296874999999,0.11247008593749999,0.052071968749999996
4.156,0.061127746,0.047431145,0.11457350781249999,0.112473172,0.052073445
4.16,0.061127543,0.047431781,0.11457350781249999,0.11247555468749999,0.052075390624999995
4.164,0.061127578,0.047432387,0.114572734,0.112477328,0.052076328124999995
4.168,0.061127980468749996,0.047433359,0.114570422,0.112478539,0.052076563
4.172,0.061127175781249994,0.047433793,0.1145725,0.112480719,0.052077336
4.176,0.061126539,0.04743423,0.11457461718749999,0.112482758,0.052076160156249995
4.18,0.061126203,0.047434328,0.114571898,0.11248407031249999,0.052075055
4.184,0.061126839843749996,0.047434832,0.11456790624999999,0.11248581249999999,0.052073883
4.188,0.061127477,0.047433761718749995,0.11456546093749999,0.11248675,0.052071602
4.192,0.06112741,0.047432219,0.114564891,0.11248651562499999,0.052071097656249996
4.196,0.061127175781249994,0.047431883,0.114565297,0.112485508,0.052070762
4.2,0.061128148437499995,0.047433055,0.114566133,0.112481555,0.052070262
4.204,0.061128414,0.047435,0.114567172,0.11246757,0.052071703
4.208,0.061127980468749996,0.047436578,0.114568914,0.112451813,0.052071668
4.212,0.061128046874999994,0.047437648,0.114569953,0.112437836,0.052072136718749995
4.216,0.061129187499999994,0.047436676,0.11457089062499999,0.11242549218749999,0.052073344
4.22,0.061130160156249995,0.04743527,0.114573773,0.112414695,0.052073781
4.224,0.06112959,0.047434664,0.114575484,0.112404977,0.052074215
4.228,0.061127309,0.047434496,0.11457454687499999,0.112395484,0.052074184
4.232,0.061126136718749995,0.047434664,0.114573445,0.11238693749999999,0.052073781
4.236,0.061125664062499994,0.047434632812499995,0.11457404687499999,0.112378992,0.052074016
4.24,0.061125398,0.047434093749999996,0.114575383,0.11237258593749999,0.052073175781249995
4.244,0.0611255,0.047434261718749995,0.11457773437499999,0.112367289,0.052072605
4.248,0.061125566,0.047434598,0.11458035156249999,0.11236266406249999,0.052073613
4.252,0.061125800781249996,0.047434398,0.11458266406249999,0.11235967968749999,0.052073078
4.256,0.061125633,0.047434632812499995,0.114584438,0.11235619531249999,0.052071703
4.26,0.061125164062499994,0.047434566406249996,0.11458578124999999,0.11235337499999999,0.052070664
4.264,0.061125063,0.047434261718749995,0.114586453,0.11235213281249999,0.05206959
4.268,0.061124457031249996,0.047434027,0.114587555,0.112351063,0.052068046874999996
4.272,0.061124124999999994,0.047433895,0.114587289,0.112349922,0.052067007812499996
4.276,0.061124191,0.047433828,0.114584609,0.112348781,0.052065765624999996
4.28,0.061123789062499996,0.047434195,0.114582023,0.11234864843749999,0.052063992
4.284,0.061123988,0.04743527,0.114579242,0.112348883,0.052063753906249996
4.288,0.061124324,0.047435637,0.114577133,0.112349453,0.052064059
4.292,0.061124023437499994,0.047435,0.114576227,0.11235341406249999,0.052063152343749995
4.296,0.061123687499999996,0.047434969,0.114576055,0.11236146093749999,0.052062281249999995
4.3,0.061123453,0.047436074,0.114574719,0.11236960156249999,0.052061140624999995
4.304,0.061123051,0.047436508,0.114573641,0.112377453,0.052061308593749994
4.308,0.061122984374999995,0.047436242,0.11457428124999999,0.11238435937499999,0.052061945312499996
4.312,0.061123016,0.047435773437499995,0.114575688,0.112391063,0.052062145
4.316,0.061122749999999997,0.047436141,0.114575852,0.11239757,0.052063117
4.32,0.061122546874999996,0.047436008,0.114576258,0.11240349999999999,0.052064191406249995
4.324,0.061122211,0.047435738,0.114575484,0.112409633,0.052064727
4.328,0.061122043,0.04743584,0.114574813,0.11241543749999999,0.052065164062499995
4.332,0.061122113281249994,0.047436141,0.11457558593749999,0.112420734,0.052065836
4.336,0.061122145,0.047435503906249996,0.114576125,0.112425633,0.052066336
4.34,0.061121809,0.047435570312499994,0.11457565624999999,0.112429953,0.052066906249999996
4.344,0.061120769531249994,0.047436742,0.114574852,0.112434211,0.052067813
4.348,0.061119965,0.047438152,0.114574813,0.112438133,0.052068719
4.352,0.061120438,0.047439559,0.114576055,0.11244336718749999,0.05206818
4.356,0.061120703124999995,0.047439461,0.11457699218749999,0.112448063,0.052067645
4.36,0.061120769531249994,0.047439359,0.11457685937499999,0.112452383,0.052066371
4.364,0.061120804687499995,0.047438824218749995,0.11457578906249999,0.11245643749999999,0.052065230468749994
4.368,0.061119633,0.047438922,0.114575188,0.11246046093749999,0.05206493
4.372,0.061118492,0.047439257812499996,0.11457528906249999,0.112464148,0.052064258
4.376,0.06111752,0.047438922,0.114577703,0.112467406,0.052064359
4.38,0.061117184,0.047439359,0.114579914,0.112470688,0.052063824
4.384,0.061116613281249996,0.0474405,0.11458082,0.112474344,0.052062648
4.388,0.061115640624999995,0.047441473,0.11458121874999999,0.11247776562499999,0.052061645
4.392,0.061114301,0.047441672,0.114583969,0.112480578,0.052061477
4.396,0.061112957,0.047441640624999996,0.114586852,0.112483563,0.052060738
4.4,0.061112757812499995,0.047442277,0.114588461,0.11248735156249999,0.052060738
4.404,0.061113460937499996,0.047442813,0.11459064062499999,0.11249137499999999,0.052060535
4.408,0.061113664062499996,0.047442609,0.114592148,0.11249476562499999,0.052058594
4.412,0.061113460937499996,0.04744184,0.114594227,0.11249784374999999,0.052058125
4.416,0.061113059,0.047442176,0.11459479687499999,0.11250099999999999,0.052057484
4.42,0.061112656249999994,0.047442008,0.11459242187499999,0.11250287499999999,0.05205752
4.424,0.061111820312499995,0.047442445,0.114589297,0.11250378124999999,0.052059328
4.428,0.061110781249999996,0.047442476562499995,0.11458718749999999,0.112504758,0.052060773
4.432,0.061109707031249995,0.047442277,0.114587492,0.112505828,0.052060234
4.436,0.06110907,0.047442445,0.114588258,0.11250746874999999,0.052059999999999995
4.44,0.061108164,0.047442043,0.11458869531249999,0.11250958593749999,0.05206084
4.444,0.061106891,0.047442008,0.114587422,0.11251146093749999,0.052060371093749995
4.448,0.061105683593749995,0.047443215,0.114586789,0.11251273437499999,0.052060504
4.452,0.061104476562499996,0.047443414062499994,0.11458802343749999,0.112514414,0.052060535
4.456,0.061103570312499994,0.047442644531249994,0.11458819531249999,0.112516992,0.052060738
4.46,0.06110327,0.047442679687499996,0.11458715624999999,0.112519203,0.052060035
4.464,0.061101961,0.047443113,0.114587086,0.11252054687499999,0.052059262
4.468,0.061100016,0.047442609,0.11459007,0.112521852,0.052059633
4.472,0.061098844,0.047441335937499995,0.114592891,0.112523297,0.052059328
4.476,0.061098676,0.047441035,0.11459607031249999,0.11252473437499999,0.052058895
4.48,0.061098844,0.047441203,0.114597813,0.11252631249999999,0.052059062499999996
4.484,0.061098171874999996,0.04744184,0.114596641,0.11252725,0.052059664
4.488,0.061097805,0.047442308593749996,0.11459577343749999,0.11252842187499999,0.052060402
4.492,0.061097602,0.047441335937499995,0.114597883,0.112529867,0.052060738
4.496,0.061098441406249995,0.04744127,0.11459909374999999,0.112531344,0.052060469
4.5,0.061098242,0.047441371,0.114599328,0.11253244531249999,0.052059867
4.504,0.061097973,0.0474405,0.11459818749999999,0.112533719,0.052059128906249995
4.508,0.061097906,0.047439996,0.11459668,0.11253472656249999,0.052058996
4.512,0.061097336,0.047439961,0.114594969,0.11253596874999999,0.052058762
4.516,0.061096797,0.047438855,0.114594594,0.11253650781249999,0.052057820312499996
4.52,0.061096063,0.047438922,0.114594297,0.11253472656249999,0.052058828
4.524,0.061095691,0.047439125,0.11459382812499999,0.11253261718749999,0.052060101562499995
4.528,0.061096664,0.047439425781249996,0.114593156,0.11253153906249999,0.052060167968749994
4.532,0.061097468749999995,0.047439828,0.114592891,0.112530672,0.052059465
4.536,0.061096867187499994,0.047439593749999995,0.11459362499999999,0.11252946093749999,0.052059898437499995
4.54,0.061096563,0.04743909,0.11459378906249999,0.11252812499999999,0.052058523
4.544,0.061095660156249995,0.047439257812499996,0.11459278906249999,0.11252701562499999,0.052057555
4.548,0.061093883,0.047439796874999995,0.11459332,0.11252564062499999,0.052058191406249996
4.552,0.061092105,0.047439359,0.11459516406249999,0.112524367,0.052059297
4.556,0.061091031,0.04743993,0.114597617,0.11252335937499999,0.052059699
4.56,0.06109093,0.0474405,0.114597813,0.112523297,0.052059195
4.564,0.061090124999999995,0.047440363281249995,0.11459724218749999,0.11252332812499999,0.052059398437499994
4.568,0.061090027,0.047440332,0.114596977,0.11252332812499999,0.052058960937499996
4.572,0.061088684,0.047439257812499996,0.11459764843749999,0.112522219,0.052057555
4.576,0.06108768,0.04743802,0.11459764843749999,0.11252195312499999,0.052055945
4.58,0.061087343749999995,0.047436777,0.114596641,0.11252215624999999,0.052054738
4.584,0.061087074218749995,0.047436476562499996,0.114595469,0.11252235937499999,0.052053832
4.588,0.06108684,0.047436309,0.11459473437499999,0.112523023,0.052052559
4.592,0.061087477,0.047436141,0.114595398,0.112524266,0.052052054687499995
4.596,0.061087914,0.047435570312499994,0.114596477,0.112525906,0.052050949218749996
4.6,0.06108825,0.047435605468749996,0.114597813,0.11252771874999999,0.052050746093749996
4.604,0.061088046874999996,0.04743641,0.114597344,0.11252943,0.052051688
4.608,0.061086875,0.047436508,0.11459768,0.11253053906249999,0.052052254
4.612,0.061086438,0.047435805,0.11459952343749999,0.112530805,0.052051953124999994
4.616,0.061086773,0.047435906,0.11460133593749999,0.112531641,0.052051215
4.62,0.061087008,0.047435132812499996,0.114601773,0.112532719,0.052051047
4.624,0.061086605,0.047435132812499996,0.114600664,0.112533625,0.052051047
4.628,0.061086438,0.047436309,0.114600664,0.11253456249999999,0.052051183593749994
4.632,0.061086371093749994,0.047436476562499996,0.114602406,0.112536039,0.05205098
4.636,0.061087109,0.047435906,0.114605055,0.112536977,0.052050211
4.64,0.061087879,0.047435738,0.114606133,0.112536977,0.052050379
4.644,0.061088214843749995,0.047435469,0.114605859,0.112537039,0.052051785156249995
4.648,0.061088082,0.047434969,0.114606766,0.112537109,0.052052824218749995
4.652,0.061088585937499995,0.04743423,0.114608445,0.112536906,0.05205343
4.656,0.061089289062499996,0.047432754,0.114609883,0.11253650781249999,0.052053227
4.66,0.061089253906249995,0.047431848,0.114609883,0.11253630468749999,0.052054367
4.664,0.061088719,0.047432789,0.114610086,0.11253700781249999,0.052054871093749996
4.668,0.061088551,0.047432152,0.114610789,0.11253797656249999,0.052053766
4.672,0.061088316406249996,0.04743118,0.11461089062499999,0.112538211,0.052052727
4.676,0.061088082,0.047430676,0.11461213281249999,0.11253838281249999,0.052051922
4.68,0.061087145,0.047430339843749995,0.114612867,0.11253892187499999,0.052050547
4.684,0.061085332031249995,0.047429938,0.114613008,0.112539391,0.052048703
4.688,0.061083188,0.047430406,0.11461407812499999,0.112539656,0.052047664
4.692,0.061081746,0.047430375,0.11461678906249999,0.11254043,0.052046019531249994
4.696,0.061081343749999996,0.047431414062499996,0.114619242,0.112541336,0.052044710937499995
4.7,0.061081477,0.047431984,0.11461967968749999,0.112541672,0.052043504
4.704,0.061082011718749996,0.047432117,0.11461967968749999,0.112542805,0.052042297
4.708,0.061081813,0.047431210937499996,0.114619375,0.11254414843749999,0.05204032
4.712,0.061080469,0.047430742,0.11462081249999999,0.11254435156249999,0.052039313
4.716,0.061078527343749994,0.047430542968749996,0.114622563,0.11254360937499999,0.05203891
4.72,0.061076781249999997,0.047430441406249996,0.114621992,0.11254303906249999,0.052037703
4.724,0.061075808593749996,0.047430207,0.114622227,0.112543578,0.052037906249999995
4.728,0.061075172,0.047429871,0.114623563,0.11254360937499999,0.052038273
4.732,0.061073867,0.047429434,0.114624641,0.112543008,0.052038578
4.736,0.061073766,0.047430441406249996,0.11462568,0.11254351562499999,0.052039749999999996
4.74,0.061074269531249996,0.047430875,0.11462531249999999,0.11254502343749999,0.052039684
4.744,0.061074672,0.047429602,0.114624508,0.112545656,0.052038477
4.748,0.061074367,0.047429199218749996,0.11462531249999999,0.11254635937499999,0.052037438
4.752,0.061074535,0.047428699218749995,0.11462614843749999,0.112547836,0.052038141
4.756,0.061074503906249994,0.047427121093749997,0.11462625,0.11254921093749999,0.052037504
4.76,0.061074199,0.047426214843749995,0.114624875,0.112549852,0.052037402
4.764,0.061074132812499994,0.047426449,0.11462370312499999,0.11255058593749999,0.052037301
4.768,0.061074234374999994,0.047425546874999995,0.11462329687499999,0.11255203124999999,0.052037570312499996
4.772,0.061074503906249994,0.047424473,0.114623227,0.11255289843749999,0.052037570312499996
4.776,0.061074132812499994,0.047423668,0.114624266,0.112554539,0.052037371
4.78,0.061073531,0.047422898,0.114624438,0.11255601562499999,0.052037234
4.784,0.061072691,0.047422292968749995,0.114624305,0.112556523,0.052038007812499995
4.788,0.061071754,0.047422965,0.11462407031249999,0.11255709374999999,0.052038242
4.792,0.061071183593749995,0.047423433593749995,0.114624234,0.112558234,0.052037636718749995
4.796,0.061070344,0.04742293,0.11462510937499999,0.112559406,0.052036800781249996
4.8,0.061069809,0.047422461,0.11462544531249999,0.11256091406249999,0.052035289
4.804,0.061069238,0.047422594,0.114624875,0.112561547,0.052033984374999995
4.808,0.061069105468749996,0.047422563,0.114625141,0.112561883,0.052034082
4.812,0.061068835937499996,0.047422594,0.11462574218749999,0.11256161718749999,0.052033445312499996
4.816,0.061069070312499994,0.047422094,0.114627016,0.112562352,0.052032574218749995
4.82,0.061069574,0.047421891,0.114626016,0.112563867,0.052032238
4.824,0.061069574,0.047421187499999996,0.114624133,0.11256473437499999,0.052032543
4.828,0.061068668,0.047420652,0.11462366406249999,0.11256547656249999,0.052031199
4.832,0.06106773,0.047421085937499996,0.114625344,0.11256684374999999,0.052030699
4.836,0.06106773,0.04742075,0.11462668,0.11256916406249999,0.052030297
4.84,0.061068132812499995,0.047420016,0.114625914,0.11257083593749999,0.052029691406249995
4.844,0.061067027,0.047419848,0.11462490624999999,0.11257218,0.052028921874999995
4.848,0.061066254,0.047418707,0.114624469,0.112573656,0.052029523437499996
4.852,0.061064812499999996,0.047418168,0.114624508,0.11257542968749999,0.052029926
4.856,0.061063305,0.04741807,0.11462510937499999,0.112577875,0.052029355468749997
4.86,0.061063102,0.047417699,0.11462470312499999,0.112579891,0.052028785
4.864,0.061062938,0.047418738,0.11462332812499999,0.112581563,0.052029289
4.868,0.061061527,0.047418972656249996,0.114620445,0.11258360937499999,0.052030262
4.872,0.061060758,0.047418641,0.11461977343749999,0.112586828,0.052030262
4.876,0.061061023,0.047418875,0.114620281,0.11259004687499999,0.052028585937499996
4.88,0.061060523,0.047418035156249996,0.114620445,0.112593469,0.052027445
4.884,0.061058746,0.047418035156249996,0.11462125,0.11259638281249999,0.052027410156249995
4.888,0.061058074218749994,0.047419074218749996,0.114622523,0.112599773,0.052027813
4.892,0.061057773,0.047419008,0.114622523,0.112603125,0.052026773
4.896,0.061057402,0.047418773,0.11462282812499999,0.11260560156249999,0.052025566406249994
4.9,0.061056699218749996,0.047418539,0.11462370312499999,0.11260849218749999,0.052026105
4.904,0.061055324,0.047418707,0.114624641,0.112611539,0.052026508
4.908,0.061054621,0.047418371093749995,0.11462524218749999,0.112614219,0.052025769531249995
4.912,0.061053246,0.047419043,0.11462635156249999,0.11261606249999999,0.052024328
4.916,0.061051636718749996,0.047418906,0.114627453,0.11261834374999999,0.052023992
4.92,0.061049727,0.047417601562499995,0.114628289,0.11262035937499999,0.052025601562499996
4.924,0.061048184,0.047417297,0.11462785937499999,0.11262203124999999,0.052025601562499996
4.928,0.061047277,0.047417031,0.11462876562499999,0.11262482,0.052024898437499995
4.932,0.061046676,0.047417164062499996,0.114630609,0.112628438,0.052025066
4.936,0.061045469,0.047417633,0.114632016,0.112630719,0.052024762
4.94,0.061044094,0.047417531,0.11463171093749999,0.112633297,0.052024664062499996
4.944,0.061043589843749996,0.047417933593749996,0.11463188281249999,0.112635984,0.052024664062499996
4.948,0.061042352,0.047418137,0.114631945,0.112638063,0.052024027343749994
4.952,0.061040808593749996,0.047417902,0.114632352,0.112640141,0.052023625
4.956,0.061040640624999996,0.047417398,0.11463288281249999,0.112643055,0.052023488281249995
4.96,0.061040742,0.047417265624999996,0.11463245312499999,0.112645938,0.052023926
4.964,0.061040906,0.047417199,0.11463191406249999,0.11264892187499999,0.052024762
4.968,0.061040906,0.047416629,0.114633023,0.11265240624999999,0.052025234
4.972,0.061040539062499996,0.047416960937499995,0.11463446093749999,0.112654625,0.052025734
4.976,0.06104007,0.047417297,0.11463573437499999,0.11265649999999999,0.052027578124999994
4.98,0.061040503906249995,0.047417633,0.114636102,0.112659219,0.05202909
4.984,0.061040503906249995,0.047417867,0.114636539,0.11266243749999999,0.052029824
4.988,0.061039867,0.047418035156249996,0.11463586718749999,0.112665789,0.05202902
4.992,0.061038563,0.047417836,0.1146355,0.112669305,0.052027109
4.996,0.061036749999999994,0.047417230468749995,0.11463573437499999,0.11267410156249999,0.05202684
5,0.061035609374999994,0.047417633,0.114635469,0.11267957031249999,0.052027445
5.004,0.061035242,0.047418641,0.11463543749999999,0.112684492,0.052029055
5.008,0.061034707031249996,0.047418738,0.11463620312499999,0.11268935937499999,0.052029758
5.012,0.061034035,0.047418605,0.114636508,0.112694453,0.052028921874999995
5.016,0.061033164,0.047418168,0.11463690624999999,0.112699719,0.052027679687499995
5.02,0.061032461,0.04741807,0.11463620312499999,0.112706391,0.052027613281249996
5.024,0.061032527,0.047418269531249994,0.114634359,0.1127135,0.05202634
5.028,0.061032527,0.047418641,0.114634563,0.11272140624999999,0.052025098
5.032,0.061031957,0.047418972656249996,0.114636242,0.112728789,0.052025301
5.036,0.06103132,0.047418641,0.114636539,0.112734688,0.052025637
5.04,0.061031519531249995,0.047418035156249996,0.11463607031249999,0.11273961718749999,0.052025938
5.044,0.061030781,0.047417433593749996,0.114636641,0.11274380468749999,0.052025367
5.048,0.061029375,0.047417902,0.114637414,0.11274816406249999,0.052026773
5.052,0.06102827,0.047419043,0.11463818,0.112750781,0.052028047
5.056,0.061027934,0.047418605,0.114638414,0.11275302343749999,0.05202852
5.06,0.061027699218749995,0.04741807,0.11463775,0.112755477,0.052029523437499996
5.064,0.061027965,0.04741807,0.114636641,0.112756648,0.052029391
5.068,0.061027832,0.047417699,0.11463620312499999,0.112757891,0.052029121
5.072,0.061026324,0.047417531,0.114636242,0.11276039843749999,0.052028617
5.076,0.061024582031249996,0.047417465,0.114637078,0.112763523,0.052027949218749994
5.08,0.061024145,0.047417199,0.11463768,0.112764727,0.052028382812499996
5.084,0.061023609374999996,0.047417062499999996,0.114636875,0.11276164062499999,0.052027645
5.088,0.061022902,0.047415921874999996,0.114637375,0.11275724999999999,0.052026371093749996
5.092,0.061022902,0.047414684,0.11463898437499999,0.11275259374999999,0.052025398437499995
5.096,0.061022133,0.047415218749999995,0.11464022656249999,0.11274766406249999,0.052025234
5.1,0.061021562499999994,0.047415754,0.11463959374999999,0.112742633,0.052024594
5.104,0.061020320312499994,0.047417164062499996,0.11463889062499999,0.112736969,0.052023926
5.108,0.061020121,0.047417398,0.114640328,0.112731836,0.05202443
5.112,0.061020391,0.047416894531249996,0.114642773,0.11272798437499999,0.052023386718749995
5.116,0.061020085937499996,0.047415555,0.114644422,0.11272472656249999,0.052021879
5.12,0.061021094,0.047414179687499995,0.114644688,0.112722117,0.052020773
5.124,0.061021195,0.047414684,0.114645258,0.11271993749999999,0.052019835937499995
5.128,0.061021195,0.047414684,0.114645461,0.112717688,0.052019969
5.132,0.061021124999999996,0.047413879,0.114646461,0.112715609,0.05201893
5.136,0.061020355468749995,0.047413375,0.11464710156249999,0.112713664,0.052016785156249995
5.14,0.061019684,0.047413008,0.11464660156249999,0.11271272656249999,0.052016012
5.144,0.061019785,0.047413676,0.114646664,0.11271064843749999,0.052016449
5.148,0.061018613281249995,0.047414113281249996,0.114646664,0.11270786718749999,0.052017254
5.152,0.061015762,0.047413441,0.11464797656249999,0.11270558593749999,0.052018191
5.156,0.061013816,0.047413176,0.114649648,0.11270488281249999,0.052018593749999995
5.16,0.061012140624999996,0.047413008,0.114649648,0.11270454687499999,0.052020035
5.164,0.061009594,0.047413273,0.11464881249999999,0.112703039,0.052021374999999995
5.168,0.061009156249999995,0.047413879,0.11464982,0.11270185937499999,0.052021476562499995
5.172,0.061009191406249996,0.047413879,0.11465109374999999,0.112701094,0.05202057
5.176,0.061008320312499996,0.047413543,0.11465263281249999,0.112700992,0.052019766
5.18,0.061007449218749996,0.047413176,0.114652469,0.11270052343749999,0.052020137
5.184,0.06100584,0.047413074,0.114651828,0.11270052343749999,0.052021043
5.188,0.061004964843749995,0.047412937499999995,0.11465270312499999,0.112701055,0.052021074
5.192,0.061003523,0.047412301,0.11465390624999999,0.112700758,0.052020941
5.196,0.061003156249999996,0.047411999999999996,0.11465357,0.112700289,0.052021074
5.2,0.061002249999999994,0.047411730468749996,0.11465390624999999,0.112700352,0.052021074
5.204,0.060999938,0.047411262,0.114654109,0.112700055,0.052020973
5.208,0.060997156,0.047410492,0.114653938,0.11270052343749999,0.052020808593749995
5.212,0.060995512,0.047410559,0.114654414,0.112701961,0.052021141
5.216,0.060995309,0.047410156249999995,0.11465511718749999,0.11270343749999999,0.052020137
5.22,0.060995242,0.047409922,0.11465468,0.112703945,0.05201866
5.224,0.060995074,0.047409652,0.114654344,0.112703773,0.052017351562499994
5.228,0.060994809,0.047409184,0.11465387499999999,0.112704648,0.052017117187499996
5.232,0.060995109374999995,0.047408949218749996,0.11465464843749999,0.112706188,0.052014503906249995
5.236,0.060995144531249997,0.04740925,0.11465615624999999,0.11270678906249999,0.052012996
5.24,0.060993836,0.04740925,0.11465561718749999,0.112707492,0.052012625
5.244,0.060993465,0.047408883,0.114655383,0.112707695,0.052012660156249994
5.248,0.060993300781249996,0.047408515624999994,0.11465602343749999,0.112707695,0.052013063
5.252,0.060992258,0.047408648,0.11465652343749999,0.112707227,0.052013027
5.256,0.060991656,0.047408078124999996,0.114657797,0.11270712499999999,0.052014102
5.26,0.060991387,0.047408347656249995,0.114658133,0.112707727,0.052015344
5.264,0.060991758,0.047407711,0.11465668749999999,0.112709008,0.052015609
5.268,0.060990648437499996,0.047407777,0.11465618749999999,0.11270829687499999,0.052014637
5.272,0.060989477,0.047408816,0.114657594,0.11270692187499999,0.052013832
5.276,0.060989543,0.047409418,0.114657633,0.11270716406249999,0.052012761718749995
5.28,0.060988035156249995,0.047409484,0.1146585,0.11270712499999999,0.052012691
5.284,0.060987363,0.047410156249999995,0.114660984,0.11270712499999999,0.052013093749999996
5.288,0.060985352,0.047409352,0.114660242,0.11270642187499999,0.052012125
5.292,0.060982804687499996,0.047408012,0.1146585,0.112704813,0.052011554687499996
5.296,0.060981562499999996,0.047408414,0.114659203,0.112703336,0.052011519531249994
5.3,0.06098066,0.047407238,0.11465950781249999,0.112702336,0.052010749999999994
5.304,0.060979855,0.047407676,0.114660281,0.112701461,0.052010515624999996
5.308,0.060979117187499994,0.047408547,0.11466145312499999,0.11270149218749999,0.052011249999999995
5.312,0.060977941,0.047408379,0.114663063,0.11270185937499999,0.052011152
5.316,0.060977039062499995,0.047408246093749995,0.11466507031249999,0.11270243,0.052011117
5.32,0.06097593,0.047408078124999996,0.11466631249999999,0.112704109,0.052011152
5.324,0.060974691406249996,0.047409117187499995,0.114666883,0.112705148,0.052012660156249994
5.328,0.060974086,0.047408781,0.114667383,0.112704945,0.052013632812499995
5.332,0.060973047,0.047406835937499996,0.11466775781249999,0.11270517968749999,0.052013699
5.336,0.060971910156249996,0.047406,0.11466809374999999,0.112706188,0.05201209
5.34,0.060971003906249994,0.047405629,0.11466725,0.112706594,0.052010918
5.344,0.060970301,0.047406132812499994,0.114667422,0.11270628906249999,0.052010883
5.348,0.060969828,0.047406469,0.114667453,0.11270621874999999,0.052010848
5.352,0.060969359,0.047406402,0.114667086,0.112706492,0.052010414062499996
5.356,0.060968386718749996,0.047406266,0.11466782,0.112707633,0.052009945
5.36,0.060966644531249996,0.047406132812499994,0.114668758,0.112707969,0.052010348
5.364,0.060965234374999996,0.047406,0.11466892968749999,0.11270849999999999,0.052011082031249996
5.368,0.060964766,0.047404992187499995,0.11466906249999999,0.11270890624999999,0.052010414062499996
5.372,0.060964531249999995,0.047404492,0.11466942968749999,0.11270953906249999,0.052009039
5.376,0.060963527,0.047403617,0.11466892968749999,0.11271028124999999,0.052007058593749995
5.38,0.060962285,0.047402883,0.11466805468749999,0.11271125,0.052006492187499996
5.384,0.060960339843749996,0.047404324218749995,0.11466752343749999,0.11271078124999999,0.052006558593749995
5.388,0.06095873,0.047403988,0.114667992,0.112710914,0.052006187499999995
5.392,0.060958195,0.047403988,0.114669461,0.11271189062499999,0.052004883
5.396,0.060956855468749994,0.04740516,0.11467100781249999,0.11271232031249999,0.052003742
5.4,0.06095548,0.047405563,0.114671945,0.112713031,0.052003641
5.404,0.060954238281249996,0.047404492,0.114671609,0.11271356249999999,0.05200307
5.408,0.060953468749999996,0.047402578,0.114671945,0.112714773,0.052003339843749996
5.412,0.060953265624999996,0.047402277,0.11467365624999999,0.112715742,0.052002871
5.416,0.060952328124999997,0.047402547,0.114675633,0.112717016,0.052002199218749996
5.42,0.060951324,0.047402980468749994,0.114676133,0.112717617,0.052002199218749996
5.424,0.060950550781249994,0.047401539,0.114675703,0.112718523,0.052002636718749995
5.428,0.060949879,0.047400902343749995,0.11467532812499999,0.11271953124999999,0.052002602
5.432,0.060948605,0.047401203,0.114675703,0.11272027343749999,0.05200277
5.436,0.060947769531249994,0.047401003906249996,0.114675836,0.11272097656249999,0.052003371
5.44,0.060948105,0.047400632812499996,0.114674797,0.112723117,0.052003773
5.444,0.060948105,0.047399261718749995,0.114673758,0.112724766,0.052004313
5.448,0.060947266,0.047399695,0.114673625,0.11272607,0.052004613
5.452,0.060946125,0.047400300781249995,0.114674727,0.112727477,0.052005316406249995
5.456,0.060945355,0.047399863281249996,0.11467539843749999,0.11272915624999999,0.052004313
5.46,0.060945121,0.047399527,0.114674461,0.11272935937499999,0.052003441406249996
5.464,0.060945253906249997,0.047398387,0.114674023,0.112729555,0.052001429687499996
5.468,0.060944852,0.047397851562499996,0.114675297,0.112730164,0.052000085937499996
5.472,0.060943746093749994,0.047396746,0.114675836,0.112730531,0.052000523437499994
5.476,0.060943242187499996,0.047396109374999995,0.114676406,0.112731,0.05200059
5.48,0.06094284,0.047396109374999995,0.114676672,0.11273243749999999,0.052000789
5.484,0.060941999999999996,0.047396445,0.114676133,0.112733414,0.052001461
5.488,0.060940425781249995,0.047396777343749995,0.11467677343749999,0.112733445,0.052000523437499994
5.492,0.060939422,0.047396344,0.114677547,0.112734992,0.051998242187499995
5.496,0.060939320312499996,0.047396210937499995,0.114677547,0.112736695,0.051997101562499995
5.5,0.060939488281249996,0.047396242,0.114677211,0.112737672,0.05199757
5.504,0.060940059,0.047397281,0.114676742,0.11273844531249999,0.051998242187499995
5.508,0.060938984,0.047396242,0.114676672,0.112739516,0.051997035156249996
5.512,0.060937644531249995,0.047395371,0.11467788281249999,0.112741094,0.051995996
5.516,0.060935964843749996,0.047394566,0.114679086,0.11274307,0.051994921874999996
5.52,0.060933351562499995,0.047394363,0.114679656,0.112745781,0.051994656
5.524,0.06093218,0.047394063,0.11468046093749999,0.112748633,0.051994891
5.528,0.060931339843749995,0.047393961,0.11468113281249999,0.112750984,0.051995124999999996
5.532,0.060931977,0.047393660156249996,0.11468133593749999,0.11275329687499999,0.051994218749999994
5.536,0.060931609374999994,0.04739309,0.114681266,0.11275496874999999,0.051993313
5.54,0.06093077,0.047393492,0.114681398,0.112756383,0.051994320312499995
5.544,0.060929664,0.0473945,0.114681938,0.112757281,0.051994789
5.548,0.060928187499999995,0.047394097656249995,0.11468267187499999,0.112757922,0.051994320312499995
5.552,0.060926445312499994,0.047393226562499995,0.11468341406249999,0.11275893,0.051994421874999995
5.556,0.060925809,0.047392453,0.11468474999999999,0.112759969,0.051993918
5.56,0.060925742,0.047392254,0.114685422,0.112761375,0.051992945
5.564,0.060925371,0.047392219,0.114685555,0.112761844,0.051992207031249994
5.568,0.060924800781249996,0.047392285,0.11468599218749999,0.112763086,0.051992711
5.572,0.06092423,0.047391617,0.11468643,0.112765734,0.051992105
5.576,0.060923629,0.047391383,0.114687133,0.11276841406249999,0.051990230468749996
5.58,0.060922891,0.047391313,0.114687539,0.112770492,0.051989594
5.584,0.060922019531249996,0.047391113,0.114687836,0.112771867,0.051989727
5.588,0.060921281,0.04739091,0.11468877343749999,0.11277321093749999,0.051989324
5.592,0.060920609,0.047391078,0.11468975,0.112774688,0.051989125
5.596,0.060920043,0.04739091,0.11469112499999999,0.11277703124999999,0.051990465
5.6,0.060919804687499995,0.047389636718749996,0.11469203124999999,0.11277968,0.051991805
5.604,0.060919605,0.047388332,0.114691023,0.112780453,0.051990898437499995
5.608,0.060919101562499994,0.047388027,0.114691563,0.11278085156249999,0.051989527343749994
5.612,0.060918433593749995,0.047387828124999996,0.114692563,0.11278226562499999,0.051989054687499994
5.616,0.060917960937499994,0.04738766,0.11469320312499999,0.112783539,0.051989223
5.62,0.060917124999999996,0.047387324,0.11469357031249999,0.112785148,0.051989691406249997
5.624,0.060915617,0.04738709,0.11469403906249999,0.11278699218749999,0.051989828
5.628,0.060915516,0.04738766,0.114695719,0.11278886718749999,0.051989859374999996
5.632,0.06091548,0.047387624999999996,0.11469618749999999,0.112790547,0.051989391
5.636,0.06091548,0.047387055,0.114697195,0.112792156,0.051988820312499996
5.64,0.060916586,0.04738652,0.114696453,0.112793023,0.051987515624999994
5.644,0.060916957031249996,0.047385949,0.114694477,0.112793492,0.051986273
5.648,0.060916387,0.047384675781249996,0.11469514843749999,0.11279507,0.051985469
5.652,0.060915179687499994,0.047384441,0.114696422,0.112796813,0.051984395
5.656,0.060912999999999995,0.047384172,0.11469772656249999,0.112798086,0.051983925781249996
5.66,0.06091166,0.047384140624999994,0.114697328,0.11280006249999999,0.051984496
5.664,0.060911391,0.047385211,0.11469575,0.11280127343749999,0.051983925781249996
5.668,0.060911625,0.04738518,0.11469598437499999,0.11280308593749999,0.05198366
5.672,0.060911925781249994,0.047384140624999994,0.114696422,0.11280512499999999,0.051982922
5.676,0.060912094,0.047383101562499995,0.11469739062499999,0.11280670312499999,0.051981613
5.68,0.060911426,0.047382765624999997,0.11469742968749999,0.11280848437499999,0.051979535
5.684,0.060910652343749996,0.047382765624999997,0.114696992,0.112810422,0.051978898
5.688,0.06091052,0.047383336,0.11469792968749999,0.11281246874999999,0.051978093749999996
5.692,0.060909144531249994,0.047383199,0.11469857,0.11281474999999999,0.051977957
5.696,0.060908273,0.047383535156249997,0.11469950781249999,0.112817969,0.051979132812499995
5.7,0.060907637,0.047383066,0.114699539,0.11282159374999999,0.051979266
5.704,0.060907031,0.047381656,0.11469946874999999,0.112824477,0.051978563
5.708,0.060905925781249995,0.047381289,0.11470041406249999,0.112827422,0.051978629
5.712,0.06090452,0.047381559,0.114701078,0.11283077343749999,0.05197843
5.716,0.060902976562499996,0.047380586,0.114701016,0.11283375781249999,0.051978027
5.72,0.060901398,0.047380652343749996,0.114700578,0.11283707812499999,0.051978058593749994
5.724,0.06090073,0.047381055,0.114700945,0.1128405,0.051977992187499995
5.728,0.060899691,0.047381757812499994,0.114701617,0.112842914,0.051978593749999996
5.732,0.060898785156249996,0.047380652343749996,0.11470208593749999,0.11284553124999999,0.051979566
5.736,0.060898515624999996,0.04737998,0.114702523,0.112847875,0.051979132812499995
5.74,0.060897109374999994,0.047379882812499996,0.114702523,0.11285018749999999,0.05197873
5.744,0.060895668,0.047380215,0.114704133,0.112852938,0.051977758
5.748,0.060894793,0.047380316,0.11470520312499999,0.11285665624999999,0.051976984
5.752,0.060894058593749995,0.047379344,0.114704805,0.112859875,0.051976082031249995
5.756,0.060892883,0.047378574,0.114705039,0.112863266,0.051976383
5.76,0.060891945312499994,0.047378406,0.11470419531249999,0.112866383,0.051976785
5.764,0.060891273,0.047377469,0.114703727,0.1128695,0.051976785
5.768,0.06089077,0.047376227,0.114704469,0.11287282,0.051975878906249995
5.772,0.060890133,0.047375386718749996,0.114705172,0.112876477,0.051974305
5.776,0.060888691,0.047376293,0.114705375,0.112879125,0.051972527
5.78,0.060888055,0.047377133,0.114704766,0.11288311718749999,0.051971355
5.784,0.060887719,0.047377234,0.114704602,0.112886602,0.051971555
5.788,0.060887219,0.047377871093749996,0.11470490624999999,0.112889453,0.051970917968749995
5.792,0.060886379,0.047378203,0.11470577343749999,0.112891867,0.051970749999999996
5.796,0.060886445312499995,0.047377902,0.114706242,0.11289504687499999,0.051971656
5.8,0.060886714843749995,0.047378808593749995,0.114705539,0.112898336,0.051973129
5.804,0.060885977,0.047379078124999995,0.114705039,0.112901148,0.051973297
5.808,0.060885207,0.047378910156249995,0.114705102,0.11290349999999999,0.051973734
5.812,0.060884738281249996,0.047378371093749996,0.114705305,0.11290618,0.051974570312499996
5.816,0.060884098,0.047378574,0.114705539,0.112908594,0.051974738281249995
5.82,0.060883531,0.047378305,0.11470507031249999,0.11290980468749999,0.051975277
5.824,0.060882926,0.047378707031249995,0.114704805,0.112911477,0.051976785
5.828,0.060881921874999995,0.047379078124999995,0.114705438,0.112913258,0.051977925781249996
5.832,0.060880746,0.047378910156249995,0.114705844,0.112914797,0.051977656
5.836,0.060880578124999994,0.04737884,0.11470590624999999,0.112916375,0.051977925781249996
5.84,0.060880679687499994,0.047379078124999995,0.11470493749999999,0.112917781,0.05197873
5.844,0.060880109,0.047379410156249996,0.114705141,0.112919461,0.051980441406249994
5.848,0.060879105,0.047378910156249995,0.11470714843749999,0.112920398,0.051981547
5.852,0.060878469,0.047379078124999995,0.11470942968749999,0.11292096874999999,0.051982051
5.856,0.060878633,0.047379813,0.11470963281249999,0.11292200781249999,0.051982148
5.86,0.060878332031249996,0.047379145,0.114707047,0.112922844,0.051980773437499996
5.864,0.060877125,0.047378676,0.114704766,0.112922742,0.051979031249999995
5.868,0.060875582,0.047379078124999995,0.114704266,0.11292300781249999,0.05197873
5.872,0.060874308593749996,0.047379645,0.11470473437499999,0.112923984,0.051978160156249995
5.876,0.060873305,0.047379145,0.114704469,0.112926063,0.051978293
5.88,0.060871191,0.04737948,0.11470436718749999,0.11292673437499999,0.051978593749999996
5.884,0.060868844,0.047380753906249996,0.114704133,0.112926563,0.051977957
5.888,0.060868008,0.047381523437499996,0.11470457031249999,0.112928008,0.051977758
5.892,0.060868574,0.047381523437499996,0.11470493749999999,0.112929445,0.051977457
5.896,0.060868308593749997,0.047381254,0.114704836,0.112931125,0.051976113
5.9,0.060868074,0.047381355,0.114704102,0.11293209374999999,0.05197568
5.904,0.060867335937499996,0.047381188,0.11470332812499999,0.11293166406249999,0.051975945
5.908,0.060866429687499994,0.047380953,0.114703258,0.11293166406249999,0.051974906249999994
5.912,0.060865691,0.047380418,0.114703766,0.11293242968749999,0.05197427
5.916,0.060864219,0.04737998,0.114704063,0.11293337499999999,0.051973902343749996
5.92,0.060863042968749996,0.047380148,0.114702891,0.112934008,0.051975007812499995
5.924,0.060862305,0.047380117,0.114702055,0.112934813,0.051976383
5.928,0.060861468749999995,0.047380148,0.11470278906249999,0.112935383,0.051977289062499994
5.932,0.060859691,0.047379813,0.114703156,0.11293615624999999,0.051977555
