time,F8,F4,Fz,F3,F7
0,0.040280242187499996,0.038349586,0.10936475781249999,0.032011629,0.03456348
0.004,0.040279605,0.038348012,0.10936355468749999,0.032011293,0.03456298
0.008,0.040279504,0.038347171874999995,0.10936267968749999,0.032010789062499996,0.034562645
0.012,0.040279371093749995,0.03834657,0.109362078,0.032009314,0.034561703124999996
0.016,0.040277625,0.038346300781249995,0.109360836,0.032008912109374996,0.034561168
0.02,0.040276652,0.038346671874999995,0.109359633,0.032010086,0.034561234
0.024,0.040276285,0.038346402343749995,0.10935815624999999,0.032010287,0.034561371
0.028,0.040276117187499995,0.038347374999999996,0.10935782031249999,0.032010689,0.034560094
0.032,0.040274910156249996,0.038349254,0.10935774999999999,0.032011227,0.034558988
0.036,0.040274406,0.038350593749999995,0.10935745312499999,0.032011393,0.034558789
0.04,0.040273637,0.038350695312499995,0.10935621093749999,0.032010957031249995,0.034558555
0.044,0.040273031,0.038350324218749995,0.109353961,0.032009717,0.034559727
0.048,0.040271992,0.038350023,0.109349539,0.032008813,0.034560195
0.052,0.040271156249999995,0.03834982,0.109347094,0.032008375,0.034559792968749996
0.056,0.040270316,0.038348918,0.109346016,0.032008576,0.034559625
0.06,0.040269144531249995,0.038347844,0.109345414,0.032009215,0.034559792968749996
0.064,0.040268574,0.038347574,0.10934400781249999,0.032008007812499996,0.034559691406249995
0.068,0.040267602,0.03834734,0.10934263281249999,0.03200727,0.034559391
0.072,0.040266797,0.038346973,0.109342125,0.032006900390624995,0.034558555
0.076,0.040266695312499996,0.038347574,0.10934222656249999,0.032005894531249995,0.034556777
0.08,0.040266598,0.038347676,0.109341891,0.032004990234374996,0.034555738
0.084,0.040266195312499996,0.03834684,0.10934068749999999,0.032004654,0.034555234
0.088,0.040266093749999995,0.038346300781249995,0.109340047,0.032004252,0.034554664
0.092,0.040266797,0.038346168,0.10933887499999999,0.032002609,0.034554094
0.096,0.040266898,0.038346402343749995,0.10933833593749999,0.032002141,0.034553089843749996
0.1,0.040266563,0.038346602,0.109338172,0.032002708984374996,0.034552785
0.104,0.040266863281249995,0.038346367,0.10933720312499999,0.032001402,0.034552754
0.108,0.040267434,0.038345328,0.10933592187499999,0.032000798828124996,0.034551914
0.112,0.0402675,0.038343953124999997,0.109334688,0.032000027,0.034552050781249996
0.116,0.040267098,0.038343219,0.10933401562499999,0.031999324,0.03455225
0.12,0.040265859,0.038343551,0.109332469,0.031998385,0.03455252
0.124,0.040264749999999995,0.038343249999999995,0.10933106249999999,0.03199815,0.034552652
0.128,0.040264183593749996,0.038343219,0.109329961,0.03199758,0.034553258
0.132,0.040264148,0.038342613,0.10932965624999999,0.031996439,0.034552551
0.136,0.040264383,0.038342445,0.10932924999999999,0.031995871093749996,0.034551512
0.14,0.040264887,0.038342547,0.10932821093749999,0.031996775390624996,0.034551344
0.144,0.040265188,0.038342445,0.109328883,0.031996676,0.034550976562499995
0.148,0.040264113,0.038342145,0.109329961,0.031995904296874995,0.034552016
0.152,0.040263176,0.038343117,0.109330328,0.031996105,0.034552688
0.156,0.040262336,0.038342949,0.109330828,0.031997211,0.034552953
0.16,0.040262102,0.03834218,0.10933076562499999,0.031997881,0.034552586
0.164,0.040262438,0.038341875,0.10932982031249999,0.031998016,0.034551648
0.168,0.040262539,0.03834268,0.10932821093749999,0.031998217,0.034551648
0.172,0.040261098,0.038343082031249996,0.109326703,0.03199852,0.034551847656249995
0.176,0.040260761718749996,0.038342848,0.109324359,0.031998082,0.034550406
0.18,0.040261266,0.038341809,0.10932217968749999,0.031998117,0.03454816
0.184,0.040261063,0.038341171874999996,0.109320336,0.031999189,0.034547723
0.188,0.040261098,0.038341039,0.109318055,0.03199852,0.034547223
0.192,0.040261297,0.038340836,0.10931691406249999,0.031996977,0.034547086
0.196,0.040261199218749995,0.038339929687499996,0.10931530468749999,0.03199567,0.034546617187499996
0.2,0.040260761718749996,0.038339094,0.10931322656249999,0.031995568,0.034547457
0.204,0.040259621093749996,0.038338121,0.109311719,0.031996172,0.034548863
0.208,0.040259219,0.038337516,0.109310273,0.031996172,0.034550039062499996
0.212,0.040258883,0.038337113,0.10930970312499999,0.031995199,0.034550508
0.216,0.040257578,0.038336109374999996,0.10930957031249999,0.031995904296874995,0.034550508
0.22,0.040256973,0.038334668,0.109308766,0.031996775390624996,0.034550508
0.224,0.040256402,0.038333996093749996,0.10930866406249999,0.03199701,0.034549637
0.228,0.040256234,0.038333496093749996,0.109309039,0.031997412,0.034549367
0.232,0.040256035,0.038332957031249996,0.109308969,0.031997279,0.0345495
0.236,0.040254961,0.038332891,0.10930870312499999,0.031997043,0.034549398
0.24,0.040253621,0.038332926,0.109308398,0.031996574,0.034549398
0.244,0.040252848,0.038332758,0.10930870312499999,0.031996004,0.034548629
0.248,0.04025275,0.03833259,0.10930940624999999,0.031996238,0.034547457
0.252,0.040252781,0.038333226562499996,0.109310711,0.031995871093749996,0.03454732
0.256,0.04025218,0.038333563,0.109311047,0.031995836,0.034547691
0.26,0.040251609,0.03833366,0.10931168749999999,0.031995601562499996,0.034547656249999996
0.264,0.040252012,0.038333258,0.109311719,0.031994295,0.034547757812499996
0.268,0.040251609,0.038332891,0.10931148437499999,0.031992986,0.034547289
0.272,0.040251477,0.038332855468749996,0.10931010937499999,0.031992014,0.034547289
0.276,0.040251273,0.038332289,0.109308938,0.031991947,0.034547723
0.28,0.040250031,0.03833175,0.10930843,0.031992751953124995,0.034547152
0.284,0.04025,0.03833118,0.109307766,0.031993188,0.034546449
0.288,0.040250301,0.038331316406249996,0.109307094,0.031993154,0.034547223
0.292,0.040249699,0.038331214843749996,0.10930608593749999,0.031992148,0.03454816
0.296,0.040249195,0.038330813,0.10930524999999999,0.031991244,0.034547891
0.3,0.040249297,0.038331214843749996,0.10930551562499999,0.031991578124999996,0.034548359
0.304,0.040249898,0.038330813,0.109304578,0.031991445,0.034549301
0.308,0.04024973,0.038329137,0.10930260156249999,0.031991746093749995,0.03454893
0.312,0.040249699,0.038327960937499995,0.109301391,0.03199225,0.034548629
0.316,0.040250234,0.038327527,0.10930048437499999,0.031992148,0.034549301
0.32,0.040249965,0.038326789,0.10929857812499999,0.031990975,0.034550473
0.324,0.040248859,0.038326555,0.109295727,0.031990875,0.034550742
0.328,0.040248391,0.038326921874999996,0.109294688,0.031991377,0.034550910156249996
0.332,0.040248355,0.038327059,0.10929432,0.031990506,0.034549469
0.336,0.040247285,0.038327527,0.109295156,0.031990002,0.034548293
0.34,0.040246078,0.038327762,0.10929542187499999,0.031990037,0.034547824218749995
0.344,0.040247016,0.038327125,0.10929367968749999,0.031989398,0.034547152
0.348,0.040246848,0.03832652,0.109292844,0.031988695312499996,0.034547488
0.352,0.040246445,0.03832652,0.109292844,0.031988795,0.03454732
0.356,0.040246648,0.038325816,0.10929193749999999,0.031988896,0.03454625
0.36,0.040247382812499996,0.038326218749999995,0.109292039,0.031989064,0.034545043
0.364,0.040247453,0.038326555,0.109291266,0.031987287,0.034543867
0.368,0.04024698,0.038327089843749995,0.10929136718749999,0.031986650390624996,0.034542492187499996
0.372,0.040246246,0.038327023437499996,0.109291336,0.031987221,0.034541117
0.376,0.040245238,0.038326820312499996,0.109290023,0.031988025,0.034541554687499997
0.38,0.040245137,0.038326723,0.10928861718749999,0.031988059,0.034543031
0.384,0.040244902,0.038326555,0.109288078,0.031988227,0.034544773437499995
0.388,0.040243695,0.038325882812499996,0.10928824999999999,0.031989064,0.034546984
0.392,0.040243832031249996,0.038325882812499996,0.109287781,0.031988560546874996,0.034546652
0.396,0.040244164,0.038326086,0.109288281,0.031987891,0.034544941
0.4,0.040244031,0.038326789,0.109288148,0.031986416,0.034543934
0.404,0.040244367,0.038327527,0.109287242,0.031986281,0.034542191
0.408,0.040244637,0.038328195,0.109284492,0.031986215,0.034541254
0.412,0.040244234,0.038328801,0.109281781,0.031985879,0.034541922
0.416,0.040243898437499995,0.03832843,0.109280602,0.031984773437499996,0.034542593749999996
0.42,0.040243863,0.038327023437499996,0.10928070312499999,0.031983465,0.034541688
0.424,0.040243898437499995,0.038327059,0.109280938,0.031983834,0.034540953124999996
0.428,0.04024393,0.038328062499999996,0.109281914,0.031983834,0.034540246
0.432,0.040243562499999996,0.038328398,0.10928278124999999,0.031983297,0.034539477
0.436,0.040243328,0.038329137,0.10928368749999999,0.031983732,0.034538906
0.44,0.040243195,0.038329738,0.10928402343749999,0.031983398,0.034538402343749997
0.444,0.040244164,0.038329906,0.10928402343749999,0.031983834,0.034537164
0.448,0.040244499999999996,0.038330609,0.109284289,0.031984002,0.034537429687499996
0.452,0.040243797,0.038329972656249996,0.109284195,0.031983732,0.03453827
0.456,0.040242792968749996,0.038329804687499996,0.109284531,0.0319839,0.034538703
0.46,0.040242488281249995,0.038330140624999995,0.109285367,0.03198323,0.034538703
0.464,0.040242391,0.038330039,0.109286203,0.031983465,0.034539945
0.468,0.040241652343749997,0.038329137,0.10928646874999999,0.031984336,0.03454102
0.472,0.040240645,0.038329137,0.10928754687499999,0.031984068,0.034541453124999996
0.476,0.040240679687499996,0.038329637,0.10928818,0.031982828,0.034541789
0.48,0.040240781249999996,0.038329804687499996,0.109288555,0.031982693,0.034540918
0.484,0.040240543,0.038330074218749996,0.10928878906249999,0.031984572,0.034541051
0.488,0.040240344,0.038329738,0.10928841406249999,0.031985611328124997,0.03454159
0.492,0.040240043,0.038329539,0.109288586,0.031985509765624996,0.034541117
0.496,0.040239406,0.038329773,0.109290258,0.031984638671874996,0.034540078
0.5,0.040239203,0.038330945312499996,0.109291672,0.031984236,0.034539812499999996
0.504,0.040238164,0.038330543,0.10929157031249999,0.031984371,0.034540715
0.508,0.040236688,0.038330207,0.10929110156249999,0.031985041,0.034542191
0.512,0.040236086,0.038329941,0.10929157031249999,0.031985209,0.034542359
0.516,0.040235246093749996,0.038329472656249995,0.10929227343749999,0.031984975,0.034542258
0.52,0.040234844,0.038329234,0.109292672,0.031984638671874996,0.034541621093749995
0.524,0.040234676,0.038329234,0.10929227343749999,0.031984638671874996,0.034540851562499995
0.528,0.040233906,0.038329438,0.109291,0.031984503906249996,0.034540449
0.532,0.040233539,0.03832927,0.109290063,0.031984939,0.034539844
0.536,0.040232566406249996,0.038328969,0.109289422,0.031984939,0.034539645
0.54,0.040231761718749995,0.038329035156249996,0.109287813,0.031983834,0.034539844
0.544,0.04023109,0.03832907,0.10928479687499999,0.031983666015624995,0.034540617
0.548,0.040230554687499996,0.038328633,0.10928194531249999,0.031984336,0.034541453124999996
0.552,0.040230922,0.038328363,0.10927916406249999,0.031983867,0.034542563
0.556,0.040231055,0.038327625,0.10927638281249999,0.031981621093749996,0.034542426
0.56,0.040231559,0.038327023437499996,0.109273836,0.031980783,0.034542293
0.564,0.040231324218749996,0.038326723,0.109271453,0.031980480468749996,0.034543266
0.568,0.040230652,0.038326789,0.109271086,0.031980816,0.034543199
0.572,0.04023109,0.038327191406249995,0.109271453,0.031979979,0.034542293
0.576,0.040231293,0.038327125,0.109271453,0.031979777,0.03454209
0.58,0.040231593749999996,0.038326891,0.109270711,0.031979609374999995,0.034541453124999996
0.584,0.040232598,0.038327359,0.109268969,0.031978939,0.034539945
0.588,0.040233203,0.038328465,0.109268031,0.031976391,0.034538539
0.592,0.040233102,0.03832907,0.10926692187499999,0.031975016,0.034537597656249995
0.596,0.040232934,0.038329637,0.10926675781249999,0.031974646,0.034536996
0.6,0.040232969,0.038330242187499995,0.10926849999999999,0.031974613,0.034535417968749996
0.604,0.040231222656249996,0.038329234,0.10926779687499999,0.031974313,0.034537566
0.608,0.040228977,0.038328062499999996,0.10926521874999999,0.031974346,0.03454018
0.612,0.040227973,0.038328398,0.109265453,0.031975217,0.034539676
0.616,0.040227535,0.038329168,0.109266188,0.031976859,0.03454018
0.62,0.040226496,0.038328902,0.109266359,0.03197733,0.034542125
0.624,0.040225055,0.038328902,0.10926621874999999,0.031977496,0.034542964843749996
0.628,0.040224117,0.038328766,0.109265281,0.031977898,0.034543031
0.632,0.040223781,0.038328902,0.10926467968749999,0.031977129,0.034543332
0.636,0.040223277343749995,0.038329336,0.10926417968749999,0.031976291,0.034542695312499996
0.64,0.040222507812499995,0.038329101562499995,0.10926364062499999,0.03197609,0.034542258
0.644,0.040221602,0.038328062499999996,0.10926257,0.031974883,0.034542023
0.648,0.04022093,0.038327023437499996,0.109260727,0.031974279,0.034542359
0.652,0.040220059,0.038326820312499996,0.109259883,0.031974244,0.034543332
0.656,0.040219624999999995,0.038326621,0.109260391,0.031973139,0.034543464843749996
0.66,0.040218016,0.038325882812499996,0.109260555,0.0319721,0.034542695312499996
0.664,0.040217175781249996,0.038326688,0.10926203124999999,0.031972535156249995,0.034541891
0.668,0.040216238,0.038327594,0.10926310156249999,0.03197183,0.034541758
0.672,0.040215265624999996,0.038327762,0.10926364062499999,0.031970623,0.034540953124999996
0.676,0.040214965,0.038326754,0.109263906,0.03197173,0.034540551
0.68,0.040215062499999996,0.038325852,0.10926417968749999,0.031972166,0.034539844
0.684,0.040215367,0.038325852,0.10926289843749999,0.031971462890624996,0.034538168
0.688,0.040214797,0.038324879,0.10926223437499999,0.03197002,0.034537332
0.692,0.040213723,0.038324645,0.10926206249999999,0.031969214843749996,0.034538438
0.696,0.040213555,0.038324308593749995,0.109261664,0.031968813,0.034538402343749997
0.7,0.040213789,0.038323336,0.10926119531249999,0.031968713,0.034536859
0.704,0.040213555,0.038323035,0.109260727,0.031968109,0.034537363
0.708,0.040213121,0.038322867,0.109259586,0.031967203124999996,0.034537934
0.712,0.040212246,0.038321426,0.10925821093749999,0.031966433593749996,0.034537969
0.716,0.040211945,0.03832052,0.10925649999999999,0.031965292968749996,0.034536961
0.72,0.040211308593749995,0.038319816,0.109255359,0.031964421874999996,0.034536527
0.724,0.040211477,0.038319648,0.109254789,0.031964119,0.034536258
0.728,0.040210773,0.038319144531249995,0.109255156,0.031964488,0.034536055
0.732,0.040210871093749996,0.038319344,0.10925572656249999,0.031964891,0.034535789062499996
0.736,0.040210402,0.038318574,0.10925572656249999,0.031965729,0.034535586
0.74,0.040209363,0.038318137,0.109255023,0.031966298828124996,0.034536156
0.744,0.040209098,0.038318508,0.10925455468749999,0.031965797,0.034536289062499996
0.748,0.040208457,0.038319078124999996,0.109253383,0.031965797,0.034536996
0.752,0.040206984,0.038318374999999995,0.109251969,0.031964656,0.034538066
0.756,0.040205574,0.038317973,0.10924734374999999,0.03196375,0.034539074
0.76,0.04020484,0.038317469,0.109242883,0.03196375,0.034538703
0.764,0.040205140624999997,0.038316964843749995,0.10924103906249999,0.031963014,0.034536761718749996
0.768,0.040205676,0.038317234374999995,0.109238156,0.031961102,0.034535082
0.772,0.040204335937499995,0.038317234374999995,0.10923671874999999,0.031961302734374995,0.034534917968749995
0.776,0.040204167968749996,0.038316629,0.109235742,0.031960834,0.034533238281249996
0.78,0.04020484,0.038316262,0.10923493749999999,0.031960063,0.034531129
0.784,0.04020484,0.038315961,0.10923339843749999,0.031960128906249996,0.034530055
0.788,0.040203598,0.038315422,0.109231289,0.03195966,0.034529418
0.792,0.040202727,0.038315223,0.10923048437499999,0.031960398437499996,0.034529352
0.796,0.040201688,0.03831559,0.10922974218749999,0.031960969,0.034530289
0.8,0.040201383,0.038316496,0.10922618749999999,0.031962074,0.034530258
0.804,0.04019991,0.038316227,0.1092225,0.031963281249999996,0.03453002
0.808,0.040199874999999996,0.038316125,0.109220258,0.03196308,0.034530121
0.812,0.040199874999999996,0.038315961,0.109219078,0.031962779,0.034530492
0.816,0.040200414062499995,0.038315559,0.10921807812499999,0.03196251,0.034530289
0.82,0.040200414062499995,0.03831559,0.10921767187499999,0.03196184,0.034530691
0.824,0.040199371,0.038315488,0.109216664,0.031961504,0.034530624999999995
0.828,0.040199137,0.038315793,0.10921529687499999,0.031960365234374996,0.034530758
0.832,0.040199641,0.038315992187499995,0.109212883,0.031958555,0.03453066
0.836,0.040199707,0.038315188,0.109210133,0.031956543,0.034529753906249995
0.84,0.040199305,0.038314918,0.10920824999999999,0.031956207031249996,0.034528078
0.844,0.040199238,0.038315961,0.109206375,0.031956945,0.034526938
0.848,0.040199406,0.038315992187499995,0.109205164,0.031958117187499996,0.034526332031249996
0.852,0.040199207031249996,0.038315891,0.10920332031249999,0.031959324,0.034526601562499995
0.856,0.04019934,0.038315992187499995,0.109201813,0.031959492,0.034526098
0.86,0.040198132812499995,0.038315156249999996,0.10920087499999999,0.031958285,0.034525863
0.864,0.040196188,0.038315188,0.109200508,0.031957111328124996,0.034526871
0.868,0.040195953124999996,0.038314988,0.109199063,0.031956441,0.0345265
0.872,0.040195953124999996,0.038315559,0.109198633,0.031956441,0.034524824
0.876,0.040195988,0.038315656249999996,0.109197891,0.031956979,0.034524758
0.88,0.040196019531249995,0.038316125,0.109196953,0.031957380859374995,0.034523550781249995
0.884,0.040195383,0.038316629,0.10919534374999999,0.031956945,0.034522679687499995
0.888,0.040193875,0.03831616,0.109194203,0.031955604,0.034522711
0.892,0.040193839843749996,0.038316363,0.109193164,0.031954296874999996,0.034522308593749995
0.896,0.040193641,0.038316227,0.109190984,0.031954096,0.034522777
0.9,0.040192602,0.038315925781249996,0.109188977,0.031954129,0.034522511718749996
0.904,0.040192297,0.038315961,0.10918709374999999,0.031953291015624996,0.034521605
0.908,0.040192199218749995,0.03831532,0.109185117,0.031952451,0.034522308593749995
0.912,0.040191797,0.038315223,0.109183242,0.031951682,0.034523516
0.916,0.040191929687499996,0.038314215,0.109181359,0.031950273437499996,0.034523785
0.92,0.040190621,0.038313312499999995,0.109179688,0.031949232,0.034523953
0.924,0.040189215,0.038313074,0.10917800781249999,0.031949602,0.034523484374999996
0.928,0.040188675781249995,0.038312809,0.10917800781249999,0.031950742,0.034523215
0.932,0.040188175781249995,0.038312773437499996,0.10917814062499999,0.031951111,0.034522109
0.936,0.040187973,0.03831291,0.10917818,0.031951279296874996,0.034519965
0.94,0.040187738281249996,0.038313277,0.109179016,0.031950676,0.034518422
0.944,0.040187973,0.038313379,0.109178945,0.03195034,0.034517648
0.948,0.040187941,0.038313312499999995,0.109176297,0.031950508,0.034517883
0.952,0.040187906249999995,0.038312809,0.109174758,0.031950406,0.034517414
0.956,0.040186363,0.038311836,0.109174289,0.031949836,0.034517516
0.96,0.040185156,0.038311969,0.10917459374999999,0.031950439,0.03451698
0.964,0.040185156,0.038310964843749996,0.10917375,0.031950641,0.034516777
0.968,0.04018482,0.038310461,0.10917294531249999,0.031950574,0.034517414
0.972,0.040184152,0.038311301,0.109171711,0.031950943,0.034518086
0.976,0.040184117,0.038311566,0.109170234,0.031950676,0.034517550781249996
0.98,0.04018432,0.03831227,0.109170031,0.031950273437499996,0.034517918
0.984,0.040185124999999995,0.038312539,0.109168523,0.031948697,0.034518218749999996
0.988,0.040185726562499996,0.038313144531249996,0.109167117,0.031947893,0.034516609
0.992,0.040185594,0.038312941406249995,0.10916654687499999,0.031947926,0.034516813
0.996,0.04018482,0.038312773437499996,0.10916627343749999,0.031948764,0.034518723
1,0.040183949,0.038312406,0.109165172,0.031948596,0.034519594
1.004,0.040184016,0.038311602,0.109162625,0.031947422,0.034519727
1.008,0.040184652343749995,0.038310093749999996,0.109159734,0.031946785,0.034519293
1.012,0.04018348,0.038309691,0.10915899999999999,0.031947322,0.034518992
1.016,0.040182375,0.038308918,0.109156992,0.031947992187499996,0.03451966
1.02,0.040180797,0.038309188,0.109155242,0.031948932,0.034520836
1.024,0.040179792968749996,0.038309488,0.109153703,0.031949132812499996,0.034520668
1.028,0.040179589843749995,0.038309855,0.109152297,0.031947355,0.034519762
1.032,0.040179289,0.038309992187499996,0.109151023,0.031946617,0.034518285
1.036,0.040179055,0.038309855,0.10914941406249999,0.031945277,0.034517047
1.04,0.040179223,0.038309355,0.10914733593749999,0.031943803,0.034516039
1.044,0.040179691406249995,0.038309051,0.10914609374999999,0.031943232421874995,0.034514801
1.048,0.040179625,0.038309152,0.109145219,0.031943869,0.034514598
1.052,0.040179121,0.03830932,0.109145555,0.031943734,0.034515301
1.056,0.040178352,0.038309355,0.109145656,0.031943734,0.034516543
1.06,0.040177613281249996,0.038309656,0.109144953,0.031943467,0.034516813
1.064,0.040177211,0.038310629,0.10914505468749999,0.031943434,0.034515539062499996
1.068,0.040177246,0.038312035,0.109146492,0.031944338,0.034515335937499995
1.072,0.040178082,0.03831177,0.10914659374999999,0.031944707,0.034514598
1.076,0.040177648,0.038311098,0.109146625,0.031945143,0.034514093749999995
1.08,0.040176773,0.038311132812499996,0.109146898,0.031945445,0.034513691
1.084,0.040175499999999996,0.0383115,0.109147234,0.031945479,0.034513727
1.088,0.040174496,0.038311164,0.10914676562499999,0.031945611,0.034513625
1.092,0.040173926,0.038310395,0.10914485156249999,0.031944539,0.034513391
1.096,0.04017443,0.03830932,0.109143508,0.031943668,0.034513359
1.1,0.040175667968749995,0.038309855,0.109142039,0.031942359,0.034513023
1.104,0.040176172,0.038309422,0.109140094,0.031940549,0.034513054687499996
1.108,0.040175938,0.038308551,0.10913817968749999,0.031939912109374996,0.034512855
1.112,0.040175066,0.038307344,0.109137609,0.031939611,0.034513859
1.116,0.040173589843749996,0.038306672,0.10913660156249999,0.031939443,0.034515102
1.12,0.040171008,0.038305766,0.109135297,0.031939477,0.034516141
1.124,0.040170203,0.03830523,0.10913368749999999,0.031939175781249995,0.034516508
1.128,0.040168828,0.038305363,0.10913257812499999,0.031938336,0.034516879
1.132,0.040167386718749996,0.038304793,0.10912966406249999,0.031937933593749995,0.034518555
1.136,0.04016648,0.038304492,0.10912725,0.03193827,0.034519828
1.14,0.040166449,0.038305195,0.109126984,0.031938336,0.034519426
1.144,0.040166246,0.038306336,0.109126945,0.031938605,0.034518188
1.148,0.040166246,0.038306672,0.10912614062499999,0.031938537,0.034517715
1.152,0.04016759,0.038305832,0.109125203,0.031936627,0.034518891
1.156,0.040168059,0.038304961,0.10912419531249999,0.031935486,0.034518992
1.16,0.040167957,0.038305097656249995,0.109121516,0.031935084,0.034518555
1.164,0.040167523,0.038305566,0.109119438,0.031935084,0.034517852
1.168,0.040166953124999995,0.038306570312499996,0.10912017187499999,0.031935756,0.034517617187499995
1.172,0.040166515624999996,0.038308281,0.10912050781249999,0.031935453,0.034517449218749996
1.176,0.040166984,0.038309555,0.109120844,0.031935084,0.034515469
1.18,0.040168125,0.038309555,0.10912050781249999,0.031934514,0.034514093749999995
1.184,0.040167488,0.038309758,0.109120109,0.031934213,0.034514093749999995
1.188,0.040166617187499996,0.038309992187499996,0.10911967187499999,0.03193475,0.03451443
1.192,0.040166785156249996,0.038309453,0.109118328,0.031934447,0.034514633
1.196,0.040166953124999995,0.038309789062499995,0.109117492,0.03193475,0.034514766
1.2,0.040165844,0.038310125,0.109116219,0.031935822,0.034515871
1.204,0.040165644531249996,0.038309121093749995,0.10911266406249999,0.031935688,0.034517383
1.208,0.040165344,0.038309019531249995,0.109108375,0.031935654,0.034516777
1.212,0.040165242,0.038309121093749995,0.10910706249999999,0.031935354,0.034515703
1.216,0.040163766,0.038309019531249995,0.109106594,0.031934648,0.034516476562499995
1.22,0.040162191,0.038309254,0.109106195,0.031934246,0.034516207031249996
1.224,0.040160648437499995,0.038309453,0.10910592968749999,0.03193475,0.034516039
1.228,0.040159742,0.038310258,0.109106297,0.031935354,0.03451527
1.232,0.040159609374999995,0.038310191,0.109105594,0.031935588,0.034514164
1.236,0.040159809,0.038309855,0.109105258,0.03193475,0.034513691
1.24,0.040160883,0.038310461,0.109105453,0.031934348,0.034513054687499996
1.244,0.040160715,0.038310395,0.10910337499999999,0.031934916,0.034513859
1.248,0.040160414,0.03830959,0.10910029687499999,0.031934816,0.034514969
1.252,0.040160480468749996,0.038309758,0.10910032812499999,0.031934783,0.034514934
1.256,0.040159574,0.038309254,0.109100531,0.031935387,0.034514664
1.26,0.040157965,0.038308785,0.10910043,0.031935688,0.034514801
1.264,0.040155953,0.038308484,0.109099992,0.031936191,0.034515335937499995
1.268,0.040155117,0.038308684,0.109100531,0.031936359,0.034515102
1.272,0.040155754,0.038308953124999996,0.10910066406249999,0.031935990234374996,0.034513996
1.276,0.040156492,0.038309957,0.10910012499999999,0.031935756,0.03451225
1.28,0.040156793,0.038310563,0.10909955468749999,0.031934682,0.034511445
1.284,0.040155652,0.038309758,0.10909693749999999,0.031933609,0.034511715
1.288,0.04015582,0.038309957,0.109093484,0.031933811,0.034512352
1.292,0.040156187499999996,0.038309957,0.10909257812499999,0.03193418,0.034513191
1.296,0.040155621093749996,0.038309289,0.10909221093749999,0.03193475,0.034513156249999996
1.3,0.040154914,0.038308953124999996,0.10909107,0.031933643,0.034512855
1.304,0.040154781,0.038309121093749995,0.10908999999999999,0.031931531,0.034512887
1.308,0.040153875,0.038309219,0.109089328,0.031930994,0.034512855
1.312,0.040153441,0.038309523,0.109088422,0.031931564,0.034512586
1.316,0.040153875,0.038310093749999996,0.10908839062499999,0.031930693,0.034512285156249996
1.32,0.040153609374999996,0.038310191,0.10908949999999999,0.031929787109374996,0.034511414062499995
1.324,0.04015257,0.038310395,0.109089563,0.031929352,0.034511445
1.328,0.040152703,0.038310964843749996,0.10908751562499999,0.03192858,0.034510844
1.332,0.040152636718749996,0.038311398,0.10908664843749999,0.031926802734374995,0.034509871
1.336,0.040151695,0.038312171874999995,0.10908581249999999,0.031926434,0.034510542968749995
1.34,0.04015143,0.038312809,0.109084297,0.031927004,0.034511414062499995
1.344,0.040151863,0.038312539,0.10908299218749999,0.031927607,0.034512219
1.348,0.040151328124999996,0.03831207,0.10908249218749999,0.031927373,0.034514027343749996
1.352,0.040150523437499995,0.038311902343749996,0.10908118,0.031927439,0.034513828
1.356,0.040150558593749996,0.038311098,0.109080516,0.031927105,0.034512586
1.36,0.040149449,0.038310797,0.109080039,0.031927406,0.034512152
1.364,0.040149382812499995,0.038311969,0.109080078,0.031927205,0.034511515624999996
1.368,0.040149684,0.038312438,0.10907980468749999,0.031926703,0.034509805
1.372,0.040149281249999995,0.03831227,0.109080609,0.031927037,0.034508699
1.376,0.040148848,0.038311434,0.10908021093749999,0.031926904296874996,0.034508160156249995
1.38,0.040149516,0.038311398,0.109079609,0.031926199,0.034505980468749996
1.384,0.040149585937499996,0.038311867,0.109078234,0.031925127,0.034505480468749995
1.388,0.040148613281249995,0.038311800781249995,0.109077531,0.031925094,0.034506051
1.392,0.040148277,0.038311266,0.109076453,0.03192459,0.034505914
1.396,0.040147707,0.038311332,0.109076492,0.03192402,0.03450491
1.4,0.040147539,0.038310863281249996,0.109076859,0.031924188,0.034503266
1.404,0.04014734,0.038310461,0.109077594,0.031925295,0.034503367
1.408,0.04014593,0.038310093749999996,0.10907813281249999,0.031924926,0.034504941406249996
1.412,0.040145089843749995,0.038310023,0.109076992,0.03192402,0.034505547
1.416,0.04014566,0.038310125,0.109075617,0.03192335,0.034505210937499996
1.42,0.040146266,0.038309824,0.10907464843749999,0.031923518,0.034503566
1.424,0.040146902,0.038310093749999996,0.109073773,0.031923619,0.034503734
1.428,0.040146734,0.038310929687499995,0.109073977,0.031924992,0.034503234
1.432,0.040145695,0.038311164,0.109074578,0.031926367,0.034502227
1.436,0.04014566,0.038310594,0.109073805,0.031925865234374996,0.034501625
1.44,0.040145629,0.038309855,0.109073172,0.031925061,0.034501422
1.444,0.040144926,0.038309758,0.10907216406249999,0.031925965,0.03450132
1.448,0.040143953,0.038310023,0.109071859,0.031926133,0.034501824
1.452,0.040142477,0.038310059,0.10907279687499999,0.031926031,0.034502629
1.456,0.040142207031249995,0.038310125,0.109073133,0.031926031,0.034503031249999996
1.46,0.040141906,0.038309992187499996,0.109071188,0.031925796874999995,0.034503637
1.464,0.040143148,0.038308684,0.109069016,0.031925094,0.034504406
1.468,0.040144086,0.038308851562499996,0.109068211,0.031924691,0.034504809
1.472,0.040144926,0.038309523,0.109068609,0.031924557,0.034503800781249996
1.476,0.040144789,0.038310426,0.109069148,0.031925025,0.034502664
1.48,0.040143816,0.038310863281249996,0.10907028906249999,0.031924926,0.034502496
1.484,0.040143246,0.038310695,0.10907182812499999,0.031923853515624996,0.034503031249999996
1.488,0.040143316,0.038309789062499995,0.109072063,0.031923015624999995,0.034503367
1.492,0.040143348,0.038310023,0.109072602,0.03192268,0.034503668
1.496,0.040142242187499996,0.038310863281249996,0.109073508,0.031922746093749996,0.034504339843749995
1.5,0.04014157,0.038310996,0.109074508,0.031923182,0.034506051
1.504,0.040141539062499995,0.038310125,0.10907444531249999,0.031923785156249995,0.034506719
1.508,0.040141167968749995,0.038308785,0.109073336,0.031922947,0.034507019531249995
1.512,0.040141539062499995,0.038308918,0.10907229687499999,0.031921506,0.034506148
1.516,0.040141738,0.038309926,0.10907062499999999,0.031920602,0.034504004
1.52,0.040141402,0.038310359,0.109068211,0.031920701171874996,0.034503800781249996
1.524,0.040141637,0.038309453,0.109065891,0.031921037,0.034504473
1.528,0.040142109,0.038309188,0.10906465624999999,0.031919998,0.034503703
1.532,0.040141305,0.038309254,0.109064016,0.031919963,0.034503938
1.536,0.040140633,0.038309121093749995,0.10906378124999999,0.031919662,0.034503968749999996
1.54,0.040141234,0.038309086,0.10906318,0.031918924,0.034503164
1.544,0.040140934,0.038308281,0.10906157,0.031918389,0.034503133
1.548,0.040141472656249996,0.038308414,0.10905959374999999,0.031918254,0.03450377
1.552,0.040141906,0.038309387,0.109058617,0.031917683593749996,0.034503234
1.556,0.040140699,0.038309722656249996,0.10905731249999999,0.031917182,0.034503468749999995
1.56,0.040139625,0.038308484,0.109055469,0.031917146,0.034504539
1.564,0.04013852,0.038308281,0.109054727,0.031916644531249996,0.034504070312499996
1.568,0.040137211,0.038307746,0.109052922,0.031916309,0.034503031249999996
1.572,0.040136039,0.038307344,0.109050773,0.031915906,0.034502461
1.576,0.040135335937499995,0.038306539,0.109049867,0.031916074,0.034501121093749997
1.58,0.040135199,0.038306473,0.109049664,0.031915705078124995,0.034501422
1.584,0.040134464843749995,0.038305429687499996,0.10904859374999999,0.031913861,0.034501555
1.588,0.040133559,0.038305363,0.109047922,0.031913861,0.034500516
1.592,0.04013309,0.038305734,0.10904718749999999,0.0319146,0.034499543
1.596,0.040131816,0.038306102,0.10904664843749999,0.031914969,0.034497531
1.6,0.040130641,0.038306570312499996,0.10904725,0.031915371,0.03449693
1.604,0.040130574,0.038307609374999996,0.109047992,0.031914531249999996,0.034496461
1.608,0.040130609,0.038307878906249995,0.109047992,0.031913225,0.034496293
1.612,0.040130977,0.038308082031249996,0.10904852343749999,0.031913459,0.034496293
1.616,0.040130238,0.038307207,0.109048328,0.031913525390624996,0.034496258
1.62,0.04012873,0.038307309,0.109048563,0.031914297,0.034495488
1.624,0.040128261718749995,0.038308246,0.109048195,0.031914632812499996,0.034494714843749996
1.628,0.040128227,0.038308215,0.10904685156249999,0.031913393,0.034494113281249995
1.632,0.040127758,0.038307914,0.10904581249999999,0.031912855,0.034494816406249997
1.636,0.040127390624999995,0.038306773,0.10904373437499999,0.031912722656249996,0.034495355468749996
1.64,0.040126586,0.03830627,0.109040711,0.031912822,0.034495656
1.644,0.040125746,0.03830523,0.10903867187499999,0.031912555,0.034496258
1.648,0.04012427,0.038305063,0.109037633,0.031912285,0.034496762
1.652,0.040123367187499995,0.038305832,0.10903685937499999,0.031912688,0.034496563
1.656,0.040123699218749996,0.038306336,0.109034609,0.031912186,0.034495422
1.66,0.040123633,0.038306,0.10902992187499999,0.031912186,0.034495422
1.664,0.040123266,0.038305164,0.109027039,0.03191232,0.034495891
1.668,0.040123297,0.038304492,0.10902632812499999,0.031911549,0.034495355468749996
1.672,0.040121453,0.038304058593749996,0.10902693749999999,0.031911348,0.034495085937499996
1.676,0.040120113,0.038303422,0.109025727,0.031910777,0.034495085937499996
1.68,0.040119175781249995,0.038302313,0.109025125,0.031911146,0.03449448
1.684,0.040118402,0.038302414,0.109025094,0.031912285,0.034494246
1.688,0.040118234,0.038302546874999996,0.10902452343749999,0.031912957,0.034493813
1.692,0.040118102,0.038302113,0.109023883,0.031913191,0.034492402
1.696,0.040117668,0.038301141,0.109023016,0.031912051,0.034491734
1.7,0.040117097656249996,0.038300469,0.109022945,0.031910844,0.034491465
1.704,0.040116223,0.038299531,0.10902183593749999,0.031909336,0.034490828
1.708,0.040116324,0.038298391,0.109020266,0.031907994,0.034489320312499995
1.712,0.040116223,0.038297887,0.109019125,0.031907324,0.034487742187499996
1.716,0.04011448,0.038297453,0.10901835156249999,0.031907895,0.03448875
1.72,0.040113477,0.038296848,0.109015203,0.031908664,0.034489418
1.724,0.040113242187499995,0.038295707,0.10901412499999999,0.031907793,0.034489152343749996
1.728,0.040113242187499995,0.038294836,0.109013555,0.031907423828124996,0.03448848
1.732,0.04011284,0.038294871093749995,0.10901349218749999,0.031907726562499995,0.034487273
1.736,0.040112199,0.038295406,0.10901362499999999,0.031906955,0.034486469
1.74,0.040111363,0.038295273,0.10901278906249999,0.031905982,0.034486937499999995
1.744,0.040109953,0.038294168,0.109011039,0.031905748,0.034487910156249996
1.748,0.040108613,0.038292960937499995,0.10901007,0.031905279,0.034487543
1.752,0.040107406,0.038292859374999995,0.109011578,0.031905681640624996,0.034487441
1.756,0.040107039062499995,0.038292355,0.10901191406249999,0.031906016,0.034487105
1.76,0.040106667968749996,0.038291988,0.109011078,0.031906016,0.034486769531249996
1.764,0.040106499999999996,0.038291484,0.10900967187499999,0.031904809,0.034487309
1.768,0.040105898437499996,0.038290410156249996,0.10900822656249999,0.031903166,0.034486535
1.772,0.040105395,0.038289238,0.109006922,0.031903199,0.034485934
1.776,0.040105766,0.038288199,0.109003836,0.0319031,0.034486769531249996
1.78,0.040104488281249996,0.038286855,0.109001523,0.031903367,0.034487477
1.784,0.04010268,0.038286789,0.109001188,0.031903501953124996,0.034486535
1.788,0.040102578124999996,0.038287496,0.108999711,0.031901992,0.03448543
1.792,0.040103484,0.038288301,0.108995789,0.031900115,0.034484589843749996
1.796,0.040102813,0.038287898437499995,0.108992773,0.03189901,0.034484589843749996
1.8,0.040101941,0.038286824,0.108990453,0.031898472656249996,0.03448466
1.804,0.040100632812499995,0.038285215,0.10898867968749999,0.031898305,0.034484859374999996
1.808,0.040099496,0.038283906,0.108988984,0.031897701,0.034485598
1.812,0.04009832,0.038283,0.10898971874999999,0.031897635,0.034485531
1.816,0.040097316,0.03828357,0.10899039062499999,0.031897836,0.034485867
1.82,0.040097281,0.038284008,0.108990727,0.031898472656249996,0.03448543
1.824,0.040097785156249996,0.038284277,0.108990422,0.031896998,0.034485598
1.828,0.040096777,0.03828327,0.10898989062499999,0.031896494140624995,0.034485363
1.832,0.040095773437499996,0.038282129,0.10898932,0.031895723,0.034484457
1.836,0.040095371,0.038282902,0.108988914,0.031894449218749996,0.034484156
1.84,0.040095168,0.038283035,0.108987406,0.031895053,0.034484089843749996
1.844,0.040094129,0.038282766,0.10898603124999999,0.031894918,0.034484223
1.848,0.040093695,0.038282867,0.108984758,0.031894617,0.034484422
1.852,0.040093625,0.038283234374999996,0.108984688,0.031894951,0.034483453
1.856,0.040093191,0.038283605468749995,0.108984625,0.031895689,0.034483148
1.86,0.040093695,0.03828327,0.108985258,0.031895756,0.034482246093749995
1.864,0.040094800781249995,0.038283773,0.108986766,0.031894482,0.034480937499999996
1.868,0.040094800781249995,0.038283874999999995,0.108987203,0.031892371,0.034481172
1.872,0.040093929687499995,0.038284207031249996,0.10898777343749999,0.031891834,0.034481406
1.876,0.040093863281249996,0.038283805,0.10898797656249999,0.031891498,0.034482211
1.88,0.040092957,0.038283168,0.108986672,0.031890828,0.034482613
1.884,0.040092016,0.038282969,0.10898714062499999,0.031891096,0.034481676
1.888,0.040092086,0.038283738,0.10898847656249999,0.031891332,0.034480937499999996
1.892,0.040092051,0.038283,0.108988242,0.031891197,0.034481676
1.896,0.040091012,0.038281793,0.108987305,0.03189009,0.034481941
1.9,0.040090339843749996,0.03828166,0.108988375,0.031889285156249995,0.03448134
1.904,0.040090406249999995,0.038281059,0.108989586,0.031889419921874995,0.034480031
1.908,0.040090710937499996,0.038280586,0.10898985156249999,0.031889251953124996,0.034479695312499996
1.912,0.040090574,0.038280285156249996,0.108990859,0.031888883,0.034480066406249996
1.916,0.04009091,0.038279515624999996,0.108992031,0.031889386718749996,0.034479796874999996
1.92,0.040090945,0.038279281,0.108990992,0.03188932,0.034479527
1.924,0.040089504,0.038278508,0.108990359,0.031889486,0.034479796874999996
1.928,0.040087726562499995,0.038277035,0.10898925,0.031888918,0.034479964843749995
1.932,0.040086887,0.038276598,0.10898790624999999,0.031887676,0.034478793
1.936,0.040086585937499995,0.03827623,0.108987672,0.031886637,0.034476812499999995
1.94,0.040085714843749995,0.038276297,0.108988078,0.031885699,0.034475641
1.944,0.040085512,0.038276898,0.108988578,0.031884859,0.034474566
1.948,0.040085109,0.038276632812499996,0.10898790624999999,0.031885228515624996,0.034474031249999995
1.952,0.040084742,0.038275895,0.108986164,0.031884859,0.034474734374999996
1.956,0.040085313,0.038276297,0.10898361718749999,0.031883922,0.034475406
1.96,0.04008625,0.03827623,0.108980531,0.031882982,0.034475906
1.964,0.040086148,0.038276297,0.10897868749999999,0.031883117,0.034476141
1.968,0.040086016,0.038276898,0.108977719,0.03188352,0.034476309
1.972,0.040085246,0.038277066,0.10897710937499999,0.031882748,0.034476578
1.976,0.040085246,0.038276766,0.108976172,0.031881641,0.034475539
1.98,0.040085445312499995,0.038276934,0.108975172,0.031880166015624996,0.034474199
1.984,0.040084742,0.038278171874999996,0.108973992,0.031879797,0.034473863281249996
1.988,0.040084304687499996,0.038278542968749996,0.108971516,0.031879697,0.034472789062499995
1.992,0.040083031,0.038277871,0.108969539,0.031879193359374995,0.034472219
1.996,0.040081624999999996,0.038277336,0.108971148,0.031878255859374996,0.034471012
2,0.040080113281249996,0.03827784,0.108972523,0.031878154296874996,0.034471113
2.004,0.04007968,0.038279047,0.108971852,0.031878188,0.034471785
2.008,0.040080652343749995,0.038279683593749995,0.108969906,0.031878355,0.034472453
2.012,0.04008159,0.03828002,0.108967594,0.031877953,0.034471383
2.016,0.040081121,0.038280254,0.10896524218749999,0.031877115234374996,0.034470777
2.02,0.040081253906249996,0.038280285156249996,0.108962898,0.031876244140624996,0.034470645
2.024,0.040081488,0.038281293,0.10896175781249999,0.03187668,0.034470375
2.028,0.040080016,0.038281023,0.10896025,0.031877518,0.034470945
2.032,0.040077133,0.038280656249999996,0.108960148,0.031879027,0.034472555
2.036,0.040075691406249996,0.038280754,0.108960688,0.031879529,0.034473563
2.04,0.040076496,0.038279883,0.108958539,0.031878322,0.034472722656249996
2.044,0.04007616,0.038278777,0.108957297,0.031878355,0.034472188
2.048,0.040076094,0.038279379,0.10895857031249999,0.031878758,0.034471313
2.052,0.04007693,0.03827975,0.108959414,0.031877652,0.034469941406249996
2.056,0.040078035,0.038278844,0.108959039,0.031875506,0.03446823
2.06,0.040078508,0.038278844,0.10895595312499999,0.031873326,0.034467558593749996
2.064,0.040078371093749995,0.038277938,0.108954852,0.031871951171874996,0.034466687499999996
2.068,0.040077230468749996,0.038277367,0.10895565624999999,0.031872455,0.034467223
2.072,0.040076594,0.03827727,0.108955188,0.031873561,0.0344685
2.076,0.04007616,0.038277570312499995,0.108953344,0.031873797,0.034469539
2.08,0.040075691406249996,0.038276965,0.10895226562499999,0.031874164,0.034469671874999996
2.084,0.040075050781249996,0.038276465,0.108953445,0.031874299,0.034469703
2.088,0.040074648,0.038276598,0.108953109,0.031872824,0.034469941406249996
2.092,0.040074382812499997,0.038276429687499995,0.10895109374999999,0.031872488,0.034469671874999996
2.096,0.040074179687499996,0.038276934,0.108950289,0.031871684,0.03446927
2.1,0.040074484,0.038276898,0.10895109374999999,0.031871113,0.034467527
2.104,0.040074148,0.038276160156249996,0.10895109374999999,0.031870275,0.034466687499999996
2.108,0.040073476562499995,0.038276699,0.10894868,0.031869404,0.034465582
2.112,0.040072738,0.038276766,0.108946266,0.031869471,0.034465145
2.116,0.040071867,0.038276563,0.108943148,0.031868801,0.034464641
2.12,0.040071063,0.038276766,0.108942313,0.031868699,0.034464507812499996
2.124,0.040070293,0.038276766,0.10894204687499999,0.031868096,0.034464309
2.128,0.040070023,0.038276160156249996,0.108940734,0.031868398,0.034463703
2.132,0.040070023,0.038276261718749996,0.10894046874999999,0.031868130859374996,0.034463102
2.136,0.040070293,0.038276063,0.108939391,0.031867023437499996,0.034462227
2.14,0.040070156249999996,0.038275926,0.108939492,0.031866521,0.034461559
2.144,0.040069352,0.03827623,0.10893942968749999,0.031866387,0.034461894531249995
2.148,0.040069117187499996,0.038276094,0.108938789,0.031866186,0.034462328
2.152,0.040068918,0.038276766,0.108936344,0.031866084,0.034462129
2.156,0.040068449218749996,0.038276867,0.108934898,0.031866285,0.034461457
2.16,0.040068113,0.038277102,0.108935234,0.031865717,0.034461055
2.164,0.040068715,0.038277066,0.108935938,0.031865615,0.034461355468749996
2.168,0.04006875,0.038277168,0.108936344,0.031865951,0.034460785
2.172,0.040068281,0.038277102,0.108934266,0.03186585,0.034460316
2.176,0.040067476562499996,0.038276598,0.10893242187499999,0.031865044921874995,0.034460117
2.18,0.040067644531249995,0.038276934,0.10893064062499999,0.031862732,0.034458574218749996
2.184,0.040067644531249995,0.038276766,0.108928836,0.031862363,0.034458273
2.188,0.040066871,0.038275996,0.10892907,0.031862027,0.034459379
2.192,0.04006627,0.038276766,0.108930781,0.031861895,0.034460051
2.196,0.040065531,0.038277168,0.10893232,0.031862095703124996,0.034460117
2.2,0.04006409,0.038277637,0.108932789,0.031862027,0.034460453
2.204,0.040063082031249996,0.038277671874999995,0.10893346093749999,0.031862732,0.034460652343749995
2.208,0.040063418,0.038278676,0.10893540624999999,0.0318629,0.034459949
2.212,0.040063621,0.038279715,0.10893657812499999,0.031862531,0.034459109
2.216,0.040062715,0.038279379,0.108935844,0.031862396,0.034459109
2.22,0.040061609,0.03827891,0.108932992,0.031862396,0.034459043
2.224,0.040060266,0.038278242,0.108931984,0.031862162,0.034459012
2.228,0.040058656,0.038277738,0.108932117,0.031862999999999995,0.034459109
2.232,0.040057917968749995,0.038276699,0.108933227,0.031864107421874996,0.034459882812499995
2.236,0.040058422,0.038275156,0.10893225,0.031863939,0.034460051
2.24,0.040058019531249996,0.038274789,0.10893084374999999,0.031863436,0.03445941
2.244,0.04005782,0.038274586,0.108930742,0.031863201,0.034458273
2.248,0.040057754,0.038275156,0.10893034374999999,0.031863033,0.034456898
2.252,0.040057617,0.038275660156249995,0.10893027343749999,0.031862498,0.034456262
2.256,0.040057551,0.038275492187499996,0.108930445,0.031862598,0.034456262
2.26,0.040056578,0.03827509,0.10893158593749999,0.031863066,0.034455589843749995
2.264,0.040055773,0.038275492187499996,0.10893275781249999,0.031864072,0.034454184
2.268,0.040055339843749996,0.038275660156249995,0.108929742,0.031864375,0.034454918
2.272,0.04005527,0.038275593749999996,0.108927289,0.031864811,0.034455523437499996
2.276,0.040054902,0.03827509,0.10892628124999999,0.031865348,0.034454953
2.28,0.040054836,0.03827482,0.108925883,0.031865447,0.034453848
2.284,0.040054133,0.038274586,0.10892561718749999,0.031866354,0.034453074
2.288,0.040053023,0.038274586,0.108924945,0.031866588,0.034453109
2.292,0.040052187499999996,0.038274551,0.108923438,0.031866621,0.034454113
2.296,0.040051246,0.038274719,0.10892320312499999,0.031866688,0.034454449218749995
2.3,0.040050578,0.038275390624999996,0.10892246093749999,0.031866084,0.034453578124999995
2.304,0.040049972656249995,0.038275660156249995,0.108921727,0.031865951,0.034453344
2.308,0.040049738,0.038275593749999996,0.108922828,0.031865516,0.03445425
2.312,0.040049875,0.03827482,0.108921789,0.031865246,0.034454918
2.316,0.04004957,0.038274586,0.10892299999999999,0.031864912,0.034454785
2.32,0.040049941,0.038274484,0.10892528124999999,0.031864309,0.034453813
2.324,0.040050441,0.038273746,0.108926188,0.031862999999999995,0.034452773
2.328,0.040050945312499996,0.038273378906249995,0.10892652343749999,0.031861658,0.034452473
2.332,0.040050777343749996,0.038273313,0.108926422,0.031861424,0.034452406
2.336,0.040049707,0.038273648437499995,0.108927391,0.031861895,0.034452203
2.34,0.04004843,0.038273480468749996,0.108926219,0.031862664,0.034451969
2.344,0.040047594,0.03827318,0.108922766,0.0318629,0.034452406
2.348,0.04004709,0.038272742,0.108919078,0.031863201,0.034453242
2.352,0.040046988,0.038272543,0.108916258,0.031862999999999995,0.034453511718749996
2.356,0.040047492,0.038272574,0.10891334374999999,0.031861559,0.034452875
2.36,0.04004766,0.038272238281249996,0.10891092968749999,0.031860184,0.034452269531249996
2.364,0.04004793,0.038271637,0.10890882,0.031858976562499995,0.034452574
2.368,0.040048531,0.03827073,0.108905766,0.031857971,0.034452906
2.372,0.040048363,0.038270395,0.108903852,0.031857334,0.034452269531249996
2.376,0.040046352,0.038271031,0.10890536718749999,0.031857637,0.034451367
2.38,0.040045214843749996,0.038271637,0.108907977,0.031857871,0.034451296874999995
2.384,0.040044574,0.038271402,0.108909289,0.031858273,0.034451934
2.388,0.040044309,0.038270496093749995,0.108910359,0.031859145,0.034454449218749995
2.392,0.040044977,0.038269758,0.108910055,0.031859715,0.034455625
2.396,0.040044242187499995,0.038269391,0.108909656,0.031860385,0.034455555
2.4,0.040044574,0.038269625,0.10890825,0.031861391,0.034455792968749996
2.404,0.040044574,0.038269961,0.108905766,0.031861424,0.034455488
2.408,0.040043301,0.038269824,0.10890342187499999,0.031861055,0.034455691406249996
2.412,0.040042563,0.038270027,0.108902109,0.031860385,0.03445502
2.416,0.040042965,0.038270293,0.108900773,0.031859648,0.034453848
2.42,0.040043637,0.038270058593749996,0.108898961,0.03185958,0.034452977
2.424,0.040043703124999996,0.038270328124999996,0.108896945,0.031860050781249996,0.034453074
2.428,0.040043133,0.038269758,0.108895141,0.031861089843749996,0.034453477
2.432,0.040043101562499996,0.038269656,0.10889359374999999,0.031861291,0.034453008
2.436,0.040043234,0.038270058593749996,0.108891953,0.03186052,0.034452640624999996
2.44,0.040043269531249995,0.038269859,0.10889205468749999,0.031860083984374996,0.034452574
2.444,0.040043469,0.038270195,0.108892289,0.031859814453124996,0.034452504
2.448,0.04004384,0.03827073,0.10889275781249999,0.03185948,0.034452102
2.452,0.040044242187499995,0.038271133,0.10889366406249999,0.031859279,0.034452437499999995
2.456,0.040045414,0.038270797,0.108892492,0.031858976562499995,0.034452238
2.46,0.040044945,0.038270797,0.10889081249999999,0.031858475,0.034451801
2.464,0.040043871093749996,0.038271097656249996,0.10888923437499999,0.031858205,0.034451769531249996
2.468,0.040043871093749996,0.038271367187499995,0.108887023,0.0318571,0.034452238
2.472,0.040043938,0.038270832,0.108885852,0.031857602,0.034452707
2.476,0.040042867,0.038270461,0.10888699218749999,0.031858072265624995,0.034452406
2.48,0.040042699,0.038270461,0.10888873437499999,0.031858441,0.034451934
2.484,0.040042563,0.038270695,0.10888943749999999,0.031859883,0.03445093
2.488,0.040042128906249995,0.038271805,0.10888927343749999,0.031860754,0.034450257812499996
2.492,0.040041391,0.038272004,0.10888699218749999,0.031860318,0.034450425781249995
2.496,0.040041559,0.038271637,0.10888819531249999,0.031859613,0.034449621
2.5,0.040041492,0.038271535,0.108889375,0.031858541,0.034448515624999995
2.504,0.040040285,0.038271836,0.108889336,0.031858307,0.03444932
2.508,0.040039179687499996,0.038272039,0.108887523,0.031858643,0.034450895
2.512,0.040038473,0.038272039,0.108885719,0.031857602,0.034451164
2.516,0.040038375,0.038271668,0.10888521093749999,0.031856529,0.034449992
2.52,0.040038305,0.038271703,0.108886055,0.031856262,0.034448113
2.524,0.040038004,0.03827291,0.108886086,0.031856193,0.034447676
2.528,0.040038137,0.038273613,0.10888317187499999,0.031856529,0.034448113
2.532,0.040038875,0.038273078,0.10888032,0.031855925781249995,0.034448684
2.536,0.040039277,0.038272406,0.10887770312499999,0.031855289,0.034447914
2.54,0.040039648,0.038272941,0.10887673437499999,0.031855121,0.034446371
2.544,0.040039379,0.038273012,0.10887720312499999,0.031855355,0.03444657
2.548,0.040038105,0.038272641,0.10887807031249999,0.031856596,0.034448047
2.552,0.040037535,0.038272473,0.108878711,0.031857535,0.034449589843749996
2.556,0.040037535,0.038272339843749996,0.10887894531249999,0.031857802734374996,0.034450125
2.56,0.040037199,0.038272141,0.108877633,0.031856563,0.034450727
2.564,0.040035656249999996,0.038271570312499996,0.108876969,0.03185673,0.03445093
2.568,0.040035254,0.038271570312499996,0.10887532,0.031856328,0.034450594
2.572,0.040036695312499995,0.038272406,0.108875258,0.031856295,0.034449589843749996
2.576,0.040037402,0.03827291,0.108876633,0.031856763671874996,0.034449589843749996
2.58,0.040036863,0.038273816,0.10887703124999999,0.031856965,0.034449555
2.584,0.040036461,0.038273848,0.108876227,0.031858205,0.034450191
2.588,0.040036531,0.038273210937499996,0.108875859,0.031858508,0.034449824
2.592,0.040037098,0.038273512,0.10887616406249999,0.031858709,0.034448648
2.596,0.040037535,0.038273078,0.10887599218749999,0.031858709,0.034447141
2.6,0.040037973,0.038272339843749996,0.10887528906249999,0.031858643,0.034447844
2.604,0.040038105,0.038272238281249996,0.108874852,0.03185824,0.034448515624999995
2.608,0.040038406,0.038272742,0.108875656,0.031857535,0.034448281
2.612,0.040037332,0.038272339843749996,0.108875156,0.031856664,0.034449051
2.616,0.040036027343749996,0.038271265624999995,0.108874852,0.031856295,0.034448984
2.62,0.040035188,0.038271570312499996,0.108874016,0.031856898437499996,0.03444902
2.624,0.040034352,0.038272406,0.10887284374999999,0.031856664,0.034448148
2.628,0.040033176,0.038272707,0.108873313,0.031856127,0.034447543
2.632,0.040031266,0.038272507812499995,0.10887264062499999,0.03185673,0.034448113
2.636,0.040030828,0.038273246,0.10887284374999999,0.031857367,0.034448648
2.64,0.040030395,0.038273781,0.10887167187499999,0.031857602,0.034448816
2.644,0.040029925781249996,0.038273984,0.10887230468749999,0.031857535,0.03444798
2.648,0.040029758,0.038273883,0.108872906,0.031856898437499996,0.034447207031249996
2.652,0.040030191,0.038274082,0.108872773,0.031857199,0.034446066406249996
2.656,0.040030828,0.038274719,0.10887217187499999,0.031857568,0.03444523
2.66,0.040030395,0.038274922,0.10887176562499999,0.031857802734374996,0.034444527343749996
2.664,0.040029523,0.038274051,0.10887180468749999,0.031857736,0.034445027
2.668,0.04002932,0.038274051,0.108871336,0.031857199,0.034445332
2.672,0.040030093749999995,0.038274387,0.108868789,0.031856295,0.034445398
2.676,0.040030593749999996,0.038274887,0.10886412499999999,0.031855322,0.034445531
2.68,0.040030258,0.038275055,0.108862352,0.03185559,0.034446102
2.684,0.040029488,0.038274922,0.10886275,0.031856395,0.034447543
2.688,0.040030093749999995,0.038275625,0.108862953,0.031856127,0.034447441
2.692,0.040029722656249996,0.038275492187499996,0.108862617,0.031855424,0.034446539062499996
2.696,0.040028887,0.038275258,0.10886238281249999,0.03185425,0.034445164
2.7,0.040027746,0.038275055,0.108862445,0.031854082,0.034444961
2.704,0.040027578,0.038276261718749996,0.108863188,0.03185482,0.034444996
2.708,0.040029219,0.038276898,0.108864289,0.031855289,0.034444054687499996
2.712,0.040030059,0.038277367,0.108864359,0.031855223,0.034443086
2.716,0.040028816,0.038277973,0.108864195,0.031855121,0.034443386718749996
2.72,0.040028246,0.038278242,0.10886462499999999,0.031855389,0.034443652
2.724,0.040028246,0.03827777,0.108864727,0.031854919921874995,0.034443183593749996
2.728,0.040028484,0.038277671874999995,0.10886238281249999,0.031855289,0.034442816
2.732,0.040029086,0.038277570312499995,0.10885571093749999,0.031855188,0.034442445
2.736,0.040028683593749996,0.038277703,0.10885296093749999,0.031854518,0.034442210937499995
2.74,0.040027914062499996,0.038277570312499995,0.10885363281249999,0.031854418,0.034442715
2.744,0.040026637,0.03827784,0.10885329687499999,0.031854886718749996,0.034442648
2.748,0.040025734,0.038278508,0.108851047,0.031855457,0.034441879
2.752,0.040025800781249996,0.038279113,0.108849203,0.031855892578124996,0.034440938
2.756,0.040025129,0.038279012,0.10884836718749999,0.031856631,0.034440805
2.76,0.040025465,0.038279480468749995,0.108847664,0.031856193,0.03444057
2.764,0.040025969,0.03827918,0.108846188,0.031855088,0.034440300781249995
2.768,0.040026504,0.038279547,0.108845688,0.031854182,0.034439934
2.772,0.040026973,0.03827975,0.108844742,0.031854115,0.034439898
2.776,0.04002741,0.038279515624999996,0.108842938,0.031854451,0.03444077
2.78,0.040027344,0.038279648,0.10884172656249999,0.031855121,0.034441374999999996
2.784,0.040027207,0.038279715,0.10883978124999999,0.031855523,0.034441711
2.788,0.040026637,0.038279918,0.108835594,0.031856631,0.034443117
2.792,0.040025969,0.038279949,0.108833242,0.031855826,0.034443586
2.796,0.040024961,0.038280117,0.108833281,0.031855021484374996,0.034443117
2.8,0.040023555,0.038279582031249995,0.108833445,0.031854115,0.034443183593749996
2.804,0.040023051,0.038278945,0.108834656,0.031854283,0.034443351562499995
2.808,0.040022449,0.038278977,0.108834688,0.031854217,0.03444275
2.812,0.040022348,0.038278574,0.108832109,0.031853880859374996,0.034442648
2.816,0.040021878906249996,0.038277938,0.108828891,0.031852941,0.034442984
2.82,0.040021441,0.03827777,0.108827141,0.031851835937499996,0.03444275
2.824,0.040021273,0.038278074,0.108825867,0.031851332,0.034443219
2.828,0.040020367187499996,0.03827841,0.108825234,0.031852406,0.034443152
2.832,0.040019597656249996,0.038278844,0.108825398,0.031852371,0.034441711
2.836,0.040018156,0.038279312499999996,0.10882674218749999,0.031852205,0.03444134
2.84,0.040017753906249995,0.038279582031249995,0.108827945,0.031853109,0.034441945
2.844,0.040018355468749996,0.03827918,0.10882818,0.031853479,0.034441844
2.848,0.040019027,0.038279078,0.108826305,0.031852406,0.034441879
2.852,0.040019699218749996,0.03827891,0.108821914,0.031851098,0.034440871
2.856,0.040019664,0.038278742,0.108820844,0.031850359,0.034441003906249996
2.86,0.040019531,0.038278676,0.10882131249999999,0.031849758,0.034440503906249996
2.864,0.040020301,0.038277671874999995,0.108820875,0.031849389,0.034439598
2.868,0.040021339843749996,0.038276832,0.108819,0.031848918,0.034438625
2.872,0.040021039,0.038277438,0.10881819531249999,0.031849287,0.03443782
2.876,0.040020906249999995,0.038277637,0.108816922,0.031849422,0.034437316
2.88,0.040020703,0.038277637,0.10881413281249999,0.031848851562499995,0.034436980468749996
2.884,0.040020672,0.038276867,0.108811953,0.031847812499999996,0.03443668
2.888,0.040019398,0.038276496,0.108810547,0.031846639,0.03443809
2.892,0.040018492,0.038276429687499995,0.108810211,0.031846806640624996,0.034438859
2.896,0.040017719,0.038275660156249995,0.108808398,0.031847041,0.034439496
2.9,0.040016414,0.038275222656249996,0.108808469,0.03184751,0.034441374999999996
2.904,0.040016512,0.03827509,0.108808734,0.031847041,0.03444134
2.908,0.040015977,0.038274586,0.10880746093749999,0.031846504,0.034441074
2.912,0.040014871,0.038274551,0.108806758,0.031845734,0.034441711
2.916,0.040014336,0.038273816,0.10880542187499999,0.031844828124999995,0.034441441406249995
2.92,0.040014804687499995,0.038273210937499996,0.10880524999999999,0.031844326,0.034440535
2.924,0.040014265624999996,0.03827318,0.108804242,0.031843252,0.034439195
2.928,0.040013629,0.038273043,0.10880102343749999,0.031842279,0.034438390624999995
2.932,0.040012961,0.03827291,0.108797438,0.031842549,0.034438188
2.936,0.040012559,0.038271973,0.108794484,0.031841945,0.034438625
2.94,0.040011215,0.038271234,0.10879227343749999,0.031840537,0.034439261718749996
2.944,0.040009574218749996,0.038270461,0.10879003124999999,0.031841072,0.034439664
2.948,0.040008098,0.038269558593749996,0.108788016,0.031840636718749996,0.034439395
2.952,0.040007191406249996,0.038268449,0.10878768,0.031839865,0.034438660156249995
2.956,0.040006691406249996,0.03826768,0.10878728124999999,0.031840102,0.034438324
2.96,0.040006957,0.038266941,0.10878607,0.031839229,0.034437785
2.964,0.040006523,0.038265836,0.108783789,0.031838459,0.034436949
2.968,0.040005785,0.038265367187499996,0.10878181249999999,0.031839162,0.034435172
2.972,0.040005550781249996,0.038266004,0.10878225,0.031839262,0.034434164
2.976,0.040004847656249995,0.038266035156249996,0.10878392968749999,0.031838591796874996,0.034433496
2.98,0.040004344,0.038266136718749996,0.108784164,0.031838525,0.034432957031249996
2.984,0.040004074,0.03826577,0.108783492,0.031837117,0.034432824
2.988,0.04000357,0.038265265624999996,0.108783828,0.031835877,0.034431617
2.992,0.040002699,0.03826493,0.10878255468749999,0.031836916,0.034430945312499996
2.996,0.040001191,0.038264863,0.108781617,0.031836814,0.034430109
3,0.040000386718749996,0.038264797,0.108782617,0.031835843749999995,0.034428969
3.004,0.040000219,0.038264124999999996,0.10878255468749999,0.031833562499999996,0.034428098
3.008,0.040000086,0.038263758,0.108781617,0.031832289,0.034427426
3.012,0.039999379,0.038263824,0.10877943749999999,0.03183125,0.034425984374999996
3.016,0.039998508,0.038263355468749996,0.10877749218749999,0.031829941,0.034424477
3.02,0.039998476562499996,0.038262617,0.10877812499999999,0.031829338,0.034422566
3.024,0.039998476562499996,0.038263188,0.10877886718749999,0.031829205,0.034421527
3.028,0.039997535,0.038262816,0.108779969,0.031829371093749996,0.034422098
3.032,0.039996129,0.038262852,0.10878020312499999,0.031829472656249996,0.034422766
3.036,0.039995191,0.038262316406249997,0.108779203,0.031830277,0.034422664
3.04,0.039993547,0.038261578,0.108781281,0.03183135,0.034422465
3.044,0.039993277,0.03826168,0.10878181249999999,0.031831484374999997,0.034421996
3.048,0.039992473,0.038261445312499996,0.108780172,0.03183135,0.034421559
3.052,0.0399915,0.038260269531249995,0.10877953124999999,0.031830376953124996,0.034420621
3.056,0.039991266,0.038258828,0.10877973437499999,0.031829037,0.034418879
3.06,0.039990363281249997,0.038257086,0.108780844,0.031829439,0.034418574
3.064,0.039990195,0.038255976562499995,0.10878007031249999,0.031828969,0.034418039062499996
3.068,0.039989824,0.038255477,0.108776852,0.031828434,0.034417336
3.072,0.039989156,0.038255172,0.108776078,0.031827562499999996,0.034417301
3.076,0.039988519531249996,0.038254437499999995,0.10877534374999999,0.031826791,0.034417504
3.08,0.039987109374999996,0.038253094,0.108774273,0.031827361,0.034417234
3.084,0.039985902,0.038251586,0.108773234,0.031828936,0.034418406
3.088,0.039984762,0.038250414,0.108771352,0.031829338,0.034419078124999995
3.092,0.039983187499999996,0.038249707031249996,0.10877085156249999,0.031828902,0.034418441
3.096,0.039982785,0.038250012,0.108770922,0.031827797,0.034417672
3.1,0.039982449,0.038249707031249996,0.10877044531249999,0.031826154,0.034417738
3.104,0.039981777,0.038249172,0.108768305,0.031825182,0.034416230468749996
3.108,0.039981945312499996,0.038247563,0.108764852,0.031825113,0.034415492
3.112,0.03998198,0.038246758,0.10876293749999999,0.031826320312499996,0.034415727
3.116,0.039981043,0.038246422,0.10876293749999999,0.031827595703124996,0.034416296874999995
3.12,0.039980539,0.038246188,0.10876417968749999,0.031827428,0.034416128906249996
3.124,0.03998,0.038245484,0.10876454687499999,0.031826857,0.034416699
3.128,0.039980402,0.038246156249999996,0.108763172,0.031826119,0.034416328
3.132,0.039980304687499996,0.038246859,0.1087625,0.03182535,0.034415121
3.136,0.039979933593749996,0.038246625,0.10876207,0.031824879,0.034414218749999996
3.14,0.03998057,0.038247027,0.10876135937499999,0.031824275,0.034413379
3.144,0.039980101562499995,0.038246488,0.10876173437499999,0.031823705,0.034414148
3.148,0.039978492,0.038245754,0.108760891,0.031823035,0.034416531
3.152,0.039977117,0.038245953124999996,0.108759086,0.031822398437499996,0.034417031
3.156,0.039976816,0.038246391,0.108758813,0.031823539062499996,0.034417738
3.16,0.039976582,0.038244547,0.10875821093749999,0.031824041,0.034420117
3.164,0.039975910156249995,0.038243977,0.10875757,0.031824143,0.034419043
3.168,0.039974605,0.038244746,0.108757813,0.031824041,0.034418140624999996
3.172,0.039972895,0.038245988,0.10875861718749999,0.031824443359374996,0.034419011718749996
3.176,0.039971418,0.038247664,0.108759586,0.03182451,0.034419684
3.18,0.039969910156249996,0.038248,0.10876065624999999,0.031825215,0.034419379
3.184,0.039969543,0.038247863281249996,0.10875965624999999,0.031825717,0.034418477
3.188,0.039969207031249995,0.038247227,0.10875542968749999,0.031825818,0.034418742
3.192,0.039968738,0.038246925781249996,0.108752375,0.03182602,0.034419246
3.196,0.039968871,0.038247227,0.108748016,0.03182565,0.034419547
3.2,0.039968703,0.038246054687499996,0.108743859,0.031825113,0.034419113
3.204,0.039968301,0.03824525,0.108742719,0.031824846,0.034419379
3.208,0.039967664,0.038246156249999996,0.108743961,0.031823941,0.034419113
3.212,0.039967563,0.038246559,0.10874442968749999,0.031823068,0.034417703
3.216,0.039968335937499995,0.038246890624999995,0.10874476562499999,0.03182193,0.034416531
3.22,0.039969441,0.038246890624999995,0.108745438,0.031820251953124996,0.034414652
3.224,0.039970313,0.038248,0.108743961,0.031819447,0.034413313
3.228,0.039969777,0.038249305,0.108741211,0.031818711,0.034412676
3.232,0.039970109,0.0382485,0.108739969,0.031818609,0.034413144531249995
3.236,0.039969742,0.03824602,0.108739469,0.031819078,0.034414082
3.24,0.039968199,0.038243809,0.108738797,0.03181975,0.034415961
3.244,0.039966891,0.038242535,0.108739102,0.031820654,0.034416664
3.248,0.039966488,0.038242938,0.108739234,0.031820957,0.034417031
3.252,0.039965683593749995,0.038243508,0.108739305,0.031819548828124995,0.034416328
3.256,0.039964914062499995,0.038243305,0.108738063,0.031817068,0.034415992
3.26,0.039964547,0.038242734,0.108737055,0.031814922,0.034415859374999996
3.264,0.039965683593749995,0.038241898,0.108735914,0.03181385,0.034414785156249995
3.268,0.039966961,0.038241996,0.108734242,0.031814318359374996,0.034413781
3.272,0.039966324218749995,0.038241929687499995,0.10873172656249999,0.031815693,0.034413914062499995
3.276,0.03996468,0.038241563,0.10873075,0.031816363281249996,0.034412844
3.28,0.039964613,0.038241426,0.10873165624999999,0.031816464843749996,0.034412742
3.284,0.039964379,0.038240859,0.108731555,0.031816027,0.034413109
3.288,0.0399625,0.038241496,0.108732461,0.031815861,0.034412707031249996
3.292,0.039961059,0.038242734,0.108733031,0.031816264,0.034413012
3.296,0.039960824218749996,0.038244074,0.108733734,0.031816832,0.034413379
3.3,0.039960789062499995,0.038243875,0.10873517968749999,0.03181643,0.03441398
3.304,0.039960758,0.038243238,0.10873484374999999,0.031816631,0.034414148
3.308,0.039959816,0.038243371,0.108733031,0.031818074,0.03441482
3.312,0.039959348,0.03824391,0.108730648,0.031819447,0.034415457
3.316,0.039958207,0.038243539,0.108729711,0.031820521484374996,0.034415559
3.32,0.039956434,0.038242734,0.108730516,0.031820654,0.034416766
3.324,0.039956063,0.038241929687499995,0.10873082031249999,0.031820521484374996,0.034416496
3.328,0.039955828124999995,0.038242968749999995,0.10873135937499999,0.031819918,0.034415188
3.332,0.039955828124999995,0.038244312499999995,0.10873135937499999,0.031818912,0.034413648
3.336,0.03995623,0.038244980468749995,0.108730852,0.031819012,0.034411937499999996
3.34,0.039956297,0.038245418,0.108730219,0.031817873,0.034410796874999997
3.344,0.039957,0.03824552,0.108729813,0.031816297,0.034409289
3.348,0.039956902343749996,0.038245047,0.10872870312499999,0.03181482,0.034409152
3.352,0.039955761718749996,0.038245351562499995,0.10872729687499999,0.031814654,0.034409625
3.356,0.039954555,0.038246156249999996,0.10872488281249999,0.031815390624999995,0.034410461
3.36,0.039954656,0.03824659,0.108721703,0.031816162,0.034409957
3.364,0.039954855,0.038247363281249995,0.10872132812499999,0.031816195,0.034408183593749996
3.368,0.039954957031249995,0.038248301,0.108720828,0.03181566,0.034406671874999996
3.372,0.039955695,0.038248937499999996,0.108717742,0.031815458984374996,0.034406371
3.376,0.039955996,0.038249207031249996,0.10871455468749999,0.031815390624999995,0.034406137
3.38,0.039955227,0.038248335937499996,0.10871398437499999,0.03181566,0.034406171874999995
3.384,0.039954855,0.038247461,0.108713086,0.031815123,0.034405535
3.388,0.039954585937499995,0.038247363281249995,0.108711641,0.031814051,0.034405132812499996
3.392,0.039954723,0.038247964843749996,0.10871053124999999,0.031812809,0.034404227
3.396,0.039954824,0.038247766,0.108709258,0.031811971,0.03440473
3.4,0.039954824,0.038247461,0.108706578,0.031811300781249996,0.0344055
3.404,0.039953749999999996,0.038247328,0.108705875,0.031810998,0.034404828
3.408,0.039953046874999995,0.03824716,0.108706445,0.031810764,0.034405836
3.412,0.039952742,0.038245785156249996,0.10870688281249999,0.031810631,0.034406171874999995
3.416,0.039952543,0.038245215,0.10870650781249999,0.031811568,0.034405465
3.42,0.039951703,0.038244477,0.108705609,0.031812171874999996,0.034406406
3.424,0.039950297,0.038243406,0.10870530468749999,0.031811938,0.034408418
3.428,0.039949457031249996,0.038243809,0.10870413281249999,0.031811971,0.034409188
3.432,0.039948957031249996,0.038243671874999996,0.108700641,0.031812607,0.03441016
3.436,0.03994768,0.038243305,0.108698766,0.031811637,0.034410863281249995
3.44,0.039946105,0.038242800781249996,0.10869907031249999,0.031810261718749996,0.034411199
3.444,0.039945336,0.038242902343749996,0.10869879687499999,0.031810596,0.03441043
3.448,0.039943691406249995,0.038242465,0.10869886718749999,0.031810463,0.034409925781249996
3.452,0.039942586,0.038242938,0.108699172,0.031811468749999995,0.034409859
3.456,0.039941379,0.038244144531249996,0.108699508,0.031812943,0.034410262
3.46,0.039941410156249996,0.038244578,0.108700313,0.031813447265624996,0.034410359
3.464,0.039941578124999995,0.038245183593749996,0.108698469,0.031815222656249996,0.034410832
3.468,0.039940910156249995,0.038246086,0.108697563,0.03181482,0.03441073
3.472,0.039941313,0.038246691,0.108697391,0.031813949,0.034409554687499996
3.476,0.039941176,0.03824659,0.10869746093749999,0.031814084,0.034407710937499995
3.48,0.039940742187499996,0.03824773,0.108698398,0.031814285,0.034406137
3.484,0.039940707,0.038248234374999995,0.10869816406249999,0.031814285,0.034406906
3.488,0.039939902,0.038247293,0.108697156,0.031814418,0.034408281
3.492,0.039939098,0.038245922,0.10869588281249999,0.031814385,0.034408015624999996
3.496,0.039937621,0.038245148,0.10869360156249999,0.031815189453124997,0.034408652
3.5,0.039936684,0.03824441,0.108689445,0.031815458984374996,0.034409152
3.504,0.039936383,0.038244746,0.10868887499999999,0.031815324218749996,0.034408383
3.508,0.039937121,0.038246254,0.108688641,0.031814889,0.034408887
3.512,0.039938023,0.038247129,0.108687602,0.031813781,0.034409222656249995
3.516,0.039938563,0.038246488,0.108686328,0.031812809,0.034409222656249995
3.52,0.039938563,0.038246488,0.108685859,0.031812205078124996,0.034409891
3.524,0.039938125,0.038246488,0.10868518749999999,0.031811367,0.034409523
3.528,0.039937926,0.038246559,0.108683844,0.031811066,0.034408719
3.532,0.039937691406249996,0.03824716,0.108681969,0.031810865,0.034407848
3.536,0.039937289,0.038246961,0.10867768,0.031811502,0.034406839843749995
3.54,0.039937320312499996,0.038246324218749995,0.10867576562499999,0.031810764,0.034405332
3.544,0.039937218749999996,0.038247328,0.108676031,0.031808451,0.034404594
3.548,0.039937656249999995,0.03824773,0.10867459374999999,0.031806977,0.034403555
3.552,0.039937757812499995,0.038247027,0.108673859,0.031807311,0.034403387
3.556,0.039938023,0.038246859,0.108673992,0.031807947,0.03440332
3.56,0.039937555,0.038247563,0.108673617,0.031806674,0.034404125
3.564,0.039937218749999996,0.038247964843749996,0.108671977,0.031806406249999995,0.034405800781249996
3.568,0.039937555,0.038247766,0.10866862499999999,0.031805635,0.034406003906249996
3.572,0.039937355,0.03824773,0.108668188,0.031805568,0.034406003906249996
3.576,0.039936215,0.038248266,0.108667148,0.031805533,0.034407477
3.58,0.039935141,0.038248434,0.10866564062499999,0.031805467,0.034408683593749996
3.584,0.039934371,0.038247964843749996,0.108665672,0.031806238281249996,0.03440882
3.588,0.039933332,0.038247664,0.10866564062499999,0.03180701,0.034408586
3.592,0.039931855,0.038247898,0.10866654687499999,0.031807412109374995,0.034408652
3.596,0.039931422,0.038248301,0.108666445,0.031807445,0.034407848
3.6,0.039930984,0.038249238,0.108665672,0.031807746,0.034407074
3.604,0.039930078,0.03824991,0.10866638281249999,0.031808785,0.034406203
3.608,0.039929812499999995,0.038250277,0.108667484,0.031809055,0.034406504
3.612,0.039930414062499996,0.038251015624999996,0.108667617,0.031808686,0.034406809
3.616,0.039930816,0.038251418,0.108666078,0.031808082,0.0344055
3.62,0.039930816,0.038252191,0.108662961,0.031809389,0.034404797
3.624,0.039931422,0.038253296874999995,0.108658531,0.031809893,0.034403758
3.628,0.039931488,0.038253363,0.10865497656249999,0.031809355,0.034402648437499996
3.632,0.039931254,0.038254367,0.108655781,0.031808619,0.034402246
3.636,0.03993102,0.038254871,0.10865739062499999,0.031808518,0.034401609374999996
3.64,0.039930582031249995,0.038255441,0.108658602,0.031808785,0.034400738281249996
3.644,0.039930348,0.038255273,0.10865967187499999,0.03180949,0.034401375
3.648,0.039929578,0.038255074,0.108659609,0.031809355,0.034401710937499996
3.652,0.039928,0.038254805,0.108657766,0.031809523,0.034403387
3.656,0.039927261718749996,0.038255039062499996,0.10865538281249999,0.031809826,0.034404863281249996
3.66,0.039926727,0.038254336,0.108655883,0.031810529,0.034404965
3.664,0.039926828,0.03825373,0.108656188,0.031810697,0.034404395
3.668,0.039926828,0.03825316,0.108655883,0.031810697,0.034403789062499995
3.672,0.039926895,0.038253296874999995,0.10865464062499999,0.031809791,0.034402816
3.676,0.039926625,0.038253296874999995,0.10865185937499999,0.031809255859374996,0.034402449
3.68,0.039925351562499996,0.038252859374999997,0.108651461,0.031810027,0.034402316
3.684,0.039924012,0.038253999999999996,0.10865185937499999,0.031810596,0.034401878906249996
3.688,0.039924043,0.038254437499999995,0.10865156249999999,0.031809457,0.034401813
3.692,0.039925621093749995,0.038254535,0.10865085937499999,0.031808451,0.034400941406249996
3.696,0.03992723,0.038255645,0.10865078906249999,0.031807178,0.034400035
3.7,0.039927531249999995,0.038255477,0.108649344,0.031805902,0.034400035
3.704,0.039926793,0.038253699,0.10864850781249999,0.031805902,0.034398793
3.708,0.039925957,0.03825343,0.108648641,0.031806842,0.034398023
3.712,0.039925484,0.038253563,0.10864887499999999,0.031807076,0.034397488
3.716,0.039924480468749995,0.038253531,0.108645695,0.031806506,0.034398793
3.72,0.039922199218749996,0.038252996,0.10864290624999999,0.031805734,0.03439943
3.724,0.039921195,0.038253363,0.10864331249999999,0.031806004,0.034399164
3.728,0.039920457031249995,0.038253964843749995,0.108642141,0.031807178,0.034399097656249995
3.732,0.039920156,0.038254605,0.108640898,0.031807746,0.03439923
3.736,0.039920523,0.038254937499999996,0.10863921874999999,0.031807109374999996,0.034398359
3.74,0.039919617,0.038254769531249996,0.108638117,0.031806506,0.034397687499999996
3.744,0.039919383,0.038254605,0.108637984,0.031806373046874996,0.034396281
3.748,0.039919687499999995,0.038255207031249995,0.108639055,0.031805367187499996,0.03439591
3.752,0.039920289062499996,0.038256281249999996,0.10863978906249999,0.03180359,0.034396145
3.756,0.039921262,0.038256379,0.108638617,0.03180332,0.034395777343749996
3.76,0.03992059,0.038255441,0.108637477,0.03180332,0.034395977
3.764,0.039919519531249996,0.038255207031249995,0.108636375,0.031803422,0.034396246
3.768,0.039918546874999995,0.038255477,0.10863546874999999,0.031803891,0.034394938
3.772,0.039918211,0.038255172,0.108635703,0.031804293,0.034396145
3.776,0.039917371,0.038254402,0.108635633,0.031804527,0.034398125
3.78,0.039916367187499996,0.038253363,0.108636203,0.031804259765624995,0.034399699218749996
3.784,0.03991623,0.038253699,0.10863721093749999,0.031804226562499996,0.034401477
3.788,0.039915426,0.038253934,0.108637477,0.031803455,0.034401777343749995
3.792,0.039915328124999996,0.038254469,0.10863714062499999,0.03180359,0.034401141
3.796,0.039916097656249996,0.038255039062499996,0.10863657,0.031803824,0.03440027
3.8,0.039915996093749996,0.038255308593749995,0.10863596874999999,0.031803959,0.034400438
3.804,0.039916398,0.038254504,0.108635531,0.03180302,0.034400707
3.808,0.039916902,0.038253999999999996,0.10863214843749999,0.031802148,0.034401746
3.812,0.039916836,0.038253964843749995,0.10862862499999999,0.031801879,0.034402047
3.816,0.039917809,0.038252793,0.108628289,0.031801041015624996,0.034401176
3.82,0.039918344,0.038251218749999996,0.108627953,0.031799969,0.034399968749999996
3.824,0.039918211,0.03825075,0.108628898,0.031800337890624995,0.034399465
3.828,0.039918242,0.038250109,0.10862909374999999,0.031800236,0.034399465
3.832,0.039918242,0.038250379,0.108627992,0.0317999,0.034398426
3.836,0.039918078,0.038250313,0.108627484,0.031799131,0.034398223
3.84,0.03991784,0.038249238,0.10862771874999999,0.03179809,0.034397585937499996
3.844,0.039917105,0.038248402,0.108626984,0.031799095703124995,0.034398191
3.848,0.03991677,0.038247766,0.108625711,0.031798693,0.03439752
3.852,0.039916668,0.038246925781249996,0.10862195312499999,0.031798693,0.034397687499999996
3.856,0.039916133,0.03824552,0.108617828,0.031799297,0.034398125
3.86,0.039915394531249995,0.038244848,0.108614242,0.031799768,0.034398527
3.864,0.039915059,0.038244812499999996,0.10861360937499999,0.031800068359374996,0.034398023
3.868,0.039913918,0.038244379,0.108614414,0.031800873,0.034397117
3.872,0.039913918,0.03824391,0.108614547,0.031800539,0.034397117
3.876,0.039913918,0.038242867,0.108614008,0.031799633,0.03439752
3.88,0.039913484374999995,0.038242266,0.108614547,0.031799332031249995,0.034396684
3.884,0.03991318,0.038241863281249996,0.108614242,0.031798895,0.034396883
3.888,0.039913214843749996,0.038241496,0.10861390624999999,0.031798459,0.034396348
3.892,0.039912813,0.038241527,0.108611359,0.031798023437499996,0.034395508
3.896,0.039912914,0.038240457,0.10860921093749999,0.031797486,0.03439373
3.9,0.039912207,0.038239617,0.108609313,0.03179732,0.034393129
3.904,0.039912043,0.038240055,0.108610188,0.031797252,0.034393297
3.908,0.039911738,0.038239449,0.108611094,0.031798393,0.034393394531249996
3.912,0.039911238,0.038238043,0.10861078906249999,0.031799533,0.034393765624999996
3.916,0.039910465,0.038237539,0.108609313,0.0317996,0.034393933593749995
3.92,0.039909695,0.038237203,0.108606094,0.03179923,0.034394402
3.924,0.039908921874999996,0.038237102,0.10860518749999999,0.031799264,0.034393933593749995
3.928,0.039909394531249996,0.038237371,0.108605289,0.031798861,0.034393465
3.932,0.039908723,0.038237672,0.10860435156249999,0.031799197265624995,0.034393394531249996
3.936,0.039907785,0.038237839843749996,0.108604016,0.031799633,0.034392223
3.94,0.039907215,0.038237035,0.10860357812499999,0.031800169921874996,0.034390547
3.944,0.039907113281249997,0.038236129,0.108602508,0.031800371,0.034391586
3.948,0.039907348,0.038235929687499996,0.10860120312499999,0.031801477,0.034392156
3.952,0.039907852,0.038235726562499996,0.108597617,0.031802449,0.034394066
3.956,0.039908050781249996,0.038234219,0.108593188,0.031801813,0.034395273
3.96,0.039908152343749996,0.038233246,0.108589398,0.03180074,0.034394871
3.964,0.039907648,0.038233379,0.108589164,0.031800404,0.034394438
3.968,0.039907449218749995,0.03823348,0.108590438,0.031800303,0.03439427
3.972,0.039907684,0.03823375,0.108590711,0.031800572,0.034394234
3.976,0.039907246,0.038232645,0.10858942968749999,0.031800539,0.034393933593749995
3.98,0.039907785,0.038232007812499996,0.10858692187499999,0.031800035156249996,0.034394438
3.984,0.039908656,0.038231972656249995,0.108583664,0.031799029296874996,0.034393898
3.988,0.039908218749999995,0.03823234,0.10857880468749999,0.031799062499999996,0.034394301
3.992,0.039907516,0.038232141,0.10857340624999999,0.031799533,0.034395039
3.996,0.039907047,0.038231301,0.10856982,0.031799566,0.034395406249999996
4,0.039906844,0.038231402,0.10856938281249999,0.031799365,0.034395074218749995
4.004,0.039906578,0.038231402,0.108568578,0.031799164062499996,0.034393933593749995
4.008,0.039905703,0.038231301,0.108568078,0.031799969,0.034393933593749995
4.012,0.039905937499999995,0.038231402,0.108567203,0.031800303,0.034394973
4.016,0.039906176,0.03823023,0.10856361718749999,0.03180074,0.034395742
4.02,0.039905269531249996,0.038229727,0.108560531,0.031800303,0.03439591
4.024,0.039905535,0.038229426,0.10855966406249999,0.031799699,0.03439591
4.028,0.039905672,0.038229359,0.108558789,0.03180027,0.034396516
4.032,0.039905437499999995,0.038229457,0.10855825,0.031800941,0.034396781
4.036,0.039904801,0.038229223,0.10855842187499999,0.031801645,0.034398125
4.04,0.039904496,0.038229391,0.108558859,0.031801645,0.034399262
4.044,0.039904699,0.038228855468749996,0.108559828,0.031802047,0.034399097656249995
4.048,0.039905469,0.038228082,0.10855882,0.031802080078124996,0.034398023
4.052,0.039906105,0.038226472656249996,0.10855365624999999,0.031801208984374996,0.034398293
4.056,0.039905066406249995,0.038225301,0.108548695,0.031800035156249996,0.034399597656249996
4.06,0.039904598,0.038225902,0.108546047,0.031800101562499995,0.034401207
4.064,0.039904867,0.038226640624999995,0.108545547,0.031802047,0.034402113
4.068,0.039904730468749997,0.038226945312499996,0.10854651562499999,0.031802551,0.034401578
4.072,0.039904766,0.038227781249999995,0.108549367,0.031802214843749996,0.034401109374999995
4.076,0.039905937499999995,0.038229359,0.10855224999999999,0.03180141,0.034400805
4.08,0.039906676,0.038229828,0.10855510156249999,0.031800873,0.034400871
4.084,0.039906477,0.038229391,0.108555906,0.031799801,0.034401813
4.088,0.039906207031249995,0.038229121,0.10855607031249999,0.031798895,0.034402449
4.092,0.039906105,0.038228621,0.108555969,0.031798258,0.034401878906249996
4.096,0.039905203,0.038228051,0.108556914,0.031798393,0.034401945
4.1,0.039904999999999996,0.038228152343749995,0.108558148,0.031798359,0.034401878906249996
4.104,0.039905066406249995,0.038227679687499995,0.10855801562499999,0.031798359,0.034402047
4.108,0.039904969,0.03822775,0.108556242,0.031799297,0.034401878906249996
4.112,0.039904496,0.038226609,0.10855697656249999,0.03179866,0.034401746
4.116,0.039902988281249996,0.038225434,0.10855825,0.031797453,0.034401777343749995
4.12,0.03990252,0.038224395,0.10855943,0.031797588,0.034401813
4.124,0.039901715,0.038223625,0.108559094,0.031798056640624996,0.034402348
4.128,0.039901414,0.038224262,0.108556406,0.031798359,0.034402215
4.132,0.039901715,0.038224598,0.108553055,0.031798795,0.034400773
4.136,0.039901816,0.038223926,0.10855171093749999,0.031798023437499996,0.034398594
4.14,0.03990148,0.038223188,0.108553727,0.031797219,0.034398125
4.144,0.039900305,0.038221645,0.10855523437499999,0.03179799,0.034399664
4.148,0.039899402,0.038220105,0.108556039,0.031799633,0.034400773
4.152,0.03989843,0.038220105,0.108555336,0.03179923,0.034400168
4.156,0.039898227,0.038220910156249996,0.108552148,0.031798729,0.034399097656249995
4.16,0.039898059,0.038220672,0.108549703,0.031797822,0.034398828124999996
4.164,0.039897391,0.038219734,0.108549367,0.031796113281249996,0.034398961
4.168,0.039896617,0.038219434,0.10855024218749999,0.031796516,0.034398726562499995
4.172,0.039895715,0.038218762,0.108550773,0.031796783,0.034398895
4.176,0.039893938,0.038218965,0.10855195312499999,0.03179685,0.03439943
4.18,0.039892359,0.038218828,0.108552422,0.031796717,0.034399566
4.184,0.039891457,0.038217386718749996,0.10854983593749999,0.031795441,0.034398859
4.188,0.039889980468749996,0.038216484,0.10854675,0.031794369,0.034398527
4.192,0.039888906,0.038216582,0.10854440624999999,0.031795107421874996,0.034397488
4.196,0.039888672,0.038217891,0.10854357031249999,0.031795342,0.034396816406249996
4.2,0.039889042968749996,0.038219266,0.10854386718749999,0.031794906,0.034396684
4.204,0.03988941,0.038218828,0.108545344,0.031793799,0.034396613281249995
4.208,0.039888906,0.038217757812499996,0.108546617,0.031793766,0.034397285
4.212,0.039888539,0.038217254,0.108547828,0.031794471,0.034397652
4.216,0.039888406,0.038217152,0.10854829687499999,0.031794269531249995,0.034396816406249996
4.22,0.039888004,0.038216984,0.10854892968749999,0.031793934,0.034395242
4.224,0.039888406,0.038217457,0.108547359,0.031793867,0.034394672
4.228,0.039888473,0.038216113,0.10854232812499999,0.031793128906249996,0.03439373
4.232,0.039886629,0.038214707031249996,0.10853984374999999,0.031792459,0.03439323
4.236,0.039885855468749995,0.038213867,0.10854088281249999,0.031792189,0.034393699
4.24,0.039885085937499995,0.038213164,0.10854142187499999,0.031791787,0.034394438
4.244,0.039884078,0.038212761718749995,0.108540984,0.03179115,0.034395207
4.248,0.039883645,0.038212059,0.108539445,0.03179085,0.034395242
4.252,0.039883074218749995,0.038211152,0.108536664,0.03179001,0.034395172
4.256,0.03988257,0.038210246,0.10853220312499999,0.031789172,0.03439484
4.26,0.039881297,0.038209945,0.108529484,0.03178877,0.034394133
4.264,0.039880457,0.038210113,0.108530188,0.03178934,0.034393262
4.268,0.039879855468749996,0.038209141,0.10853075781249999,0.031789139,0.034393664062499996
4.272,0.039879016,0.038208336,0.108530492,0.031789844,0.034394199
4.276,0.039878816406249996,0.038207363,0.10853093,0.031790613,0.034393598
4.28,0.039878379,0.038207027,0.10853032,0.031790246,0.034394066
4.284,0.039878348,0.038207195,0.108527875,0.031789775,0.034392926
4.288,0.039878882812499995,0.038206761718749996,0.108526336,0.031789877,0.034392223
4.292,0.03987848,0.038206258,0.10852747656249999,0.031789709,0.034392391
4.296,0.039877843749999996,0.038206023,0.10852888281249999,0.031788301,0.034392223
4.3,0.039877207,0.03820582,0.108530992,0.031787832,0.034390414
4.304,0.039877676,0.038206156,0.108533141,0.031788166,0.034388703124999996
4.308,0.039878511718749995,0.038206426,0.10853374218749999,0.031788535,0.034387496
4.312,0.039878445,0.038206625,0.108534547,0.031788637,0.034386957
4.316,0.039878949,0.038206660156249996,0.108532672,0.031787764,0.034386289
4.32,0.039879285,0.038206859,0.108529453,0.031786691,0.034385785
4.324,0.039878848,0.038205351562499996,0.108526836,0.031784982,0.03438525
4.328,0.039877004,0.038204145,0.10852549218749999,0.031785217,0.034385550781249996
4.332,0.039875598,0.038203809,0.10852623437499999,0.031785518,0.034385718749999995
4.336,0.039874223,0.038204648437499995,0.10852680468749999,0.031785316,0.034384379
4.34,0.039872847656249995,0.038205184,0.108528242,0.031785686,0.034383371
4.344,0.039872211,0.038205887,0.10852854687499999,0.031786121,0.034384176
4.348,0.039871707031249995,0.038205316406249995,0.10852506249999999,0.031785886718749996,0.034385347656249995
4.352,0.039870969,0.038204313,0.10852194531249999,0.031785316,0.034385550781249996
4.356,0.039871605,0.038203875,0.108520367,0.031783809,0.034384145
4.36,0.039871539062499996,0.038203375,0.10852070312499999,0.031781964843749996,0.034382734
4.364,0.03987023,0.038203777343749995,0.10852157,0.031782199,0.034382667968749996
4.368,0.039868992,0.038203707,0.108522273,0.031781797,0.034383172
4.372,0.039868824,0.038202234,0.10852194531249999,0.03178126,0.034383406
4.376,0.039868219,0.038201496093749995,0.10851939062499999,0.031780722656249996,0.034383137
4.38,0.03986698,0.038201664,0.10851688281249999,0.031780355,0.034382769531249996
4.384,0.039865738,0.038201461,0.10851667968749999,0.031779953124999996,0.034382499999999996
4.388,0.039864602,0.03820173,0.10851842187499999,0.031779617,0.034382499999999996
4.392,0.039863059,0.038201059,0.108518586,0.031779215,0.034382867
4.396,0.03986309,0.038200055,0.10851725,0.031778912,0.034383707031249995
4.4,0.039863293,0.038199922,0.108515039,0.031778678,0.034383605
4.404,0.039863258,0.038200656,0.108512719,0.03177841,0.034383574
4.408,0.039862051,0.038200656,0.108511313,0.031777839843749996,0.034384379
4.412,0.039861414062499996,0.038200085937499996,0.10851208593749999,0.031777338,0.034383640624999996
4.416,0.039861246,0.038199652,0.108513125,0.031777102,0.034381461
4.42,0.039861012,0.038199484374999995,0.108512891,0.031777504,0.034380188
4.424,0.039861785156249996,0.038199449,0.10851232,0.0317766,0.034379648
4.428,0.039862051,0.038198645,0.10851208593749999,0.031776566,0.034379515624999996
4.432,0.039861281,0.038198343749999995,0.108512555,0.031776264,0.034379347656249996
4.436,0.039860339843749995,0.038198211,0.108513523,0.031775828124999995,0.034379281
4.44,0.039860676,0.038198445312499996,0.108512922,0.031776566,0.034379012
4.444,0.039861281,0.038198645,0.10850926562499999,0.031776666015624996,0.034378242
4.448,0.03986091,0.038198714843749995,0.108505883,0.031775527,0.034377371
4.452,0.039860339843749995,0.03819784,0.108505211,0.031774186,0.034377066
4.456,0.03985984,0.03819734,0.108505344,0.031773246,0.034376464843749996
4.46,0.039859,0.038197371,0.108505547,0.031772810546874995,0.034375895
4.464,0.039858328124999995,0.038196801,0.10850585156249999,0.031772477,0.034376261718749995
4.468,0.039858027,0.038196433593749995,0.10850585156249999,0.031772375,0.034375793
4.472,0.039857625,0.038196433593749995,0.108505617,0.031773146,0.034375055
4.476,0.039857289062499995,0.03819677,0.108504977,0.031773816406249995,0.034375156
4.48,0.039858328124999995,0.038196801,0.108501391,0.031772878906249996,0.034375762
4.484,0.039858934,0.038196398,0.108496625,0.031771603515624997,0.034375293
4.488,0.039857727,0.038195996,0.108493883,0.031770363,0.034374957
4.492,0.039857859,0.038196469,0.108493313,0.031769726562499996,0.034374554687499996
4.496,0.039857125,0.038196133,0.108493141,0.031769726562499996,0.034374152
4.5,0.039855246,0.038194957,0.10849394531249999,0.03176966,0.034373984
4.504,0.039854172,0.038194691406249995,0.10849418,0.031769189,0.034373547
4.508,0.039853199218749996,0.038194523437499996,0.10849394531249999,0.031769357,0.034372879
4.512,0.039851992,0.038193449,0.10849394531249999,0.031770195,0.034372977
4.516,0.039851121,0.038193414,0.108491133,0.031769624999999996,0.034374586
4.52,0.039850585937499995,0.03819375,0.108488914,0.031769624999999996,0.034375559
4.524,0.039850585937499995,0.038194152343749996,0.10848825,0.03177033,0.034374453124999996
4.528,0.03985082,0.038193516,0.10848747656249999,0.031769961,0.034374152
4.532,0.039850383,0.038192477,0.108486203,0.031769624999999996,0.034374789
4.536,0.039849008,0.038192879,0.10848241406249999,0.031770732421874996,0.034375593749999996
4.54,0.039848105,0.03819298,0.108478992,0.031771234,0.034375996
4.544,0.039847703,0.038192074,0.108476281,0.031771068,0.034375859
4.548,0.039847199,0.038191269531249995,0.108475438,0.031770195,0.034375293
4.552,0.039846594,0.038192207,0.108474938,0.031769156,0.034374016
4.556,0.039846695,0.038193011718749996,0.108475172,0.031769726562499996,0.034373582031249995
4.56,0.039847566,0.038192746,0.108476039,0.031770699,0.034373515624999997
4.564,0.03984807,0.038191738,0.108474195,0.031770229,0.034372542968749996
4.568,0.039848136718749996,0.038191238,0.108470977,0.031768787,0.034370934
4.572,0.039847836,0.038191672,0.108470078,0.031768453,0.034370094
4.576,0.039848304687499995,0.038192074,0.108469977,0.03176852,0.034371637
4.58,0.039848172,0.038192343749999996,0.108470406,0.03176852,0.034372676
4.584,0.039847367187499996,0.038192109,0.108471516,0.031769492,0.034372309
4.588,0.039846262,0.038191972656249996,0.108471078,0.03177043,0.034372977
4.592,0.039846094,0.038191672,0.108469367,0.031770129,0.034372844
4.596,0.039845992,0.038191672,0.10846648437499999,0.031769492,0.034372508
4.6,0.039845824,0.038192109,0.10846632031249999,0.031769826,0.034372542968749996
4.604,0.039845523437499995,0.038191941,0.108467695,0.031769525,0.034372406
4.608,0.039845488,0.038190934,0.108468031,0.031769391,0.034371503906249996
4.612,0.039844617,0.038190363,0.108466719,0.031769624999999996,0.034370363281249997
4.616,0.039844382812499995,0.038190266,0.10846614843749999,0.03176852,0.034369121093749996
4.62,0.039844418,0.038189559,0.10846460937499999,0.031767949,0.034369457
4.624,0.039844516,0.038189594,0.10846071874999999,0.031767346,0.034369289062499996
4.628,0.039843578,0.038188957,0.108459617,0.031767580078124996,0.034368383
4.632,0.039842906,0.038188754,0.108460117,0.031767613281249996,0.034368785
4.636,0.039842371093749995,0.038189227,0.108460656,0.031766742187499995,0.034369187499999995
4.64,0.039842738,0.038189895,0.108460117,0.031766843749999996,0.034368453
4.644,0.039842972656249996,0.038190230468749996,0.108460148,0.031766843749999996,0.034367648437499995
4.648,0.03984284,0.038189359374999995,0.108460453,0.031766775,0.03436768
4.652,0.039842304687499996,0.038188891,0.108461156,0.031767547,0.034367949
4.656,0.039841699,0.03818993,0.10846175781249999,0.031767346,0.034367210937499997
4.66,0.039841433593749996,0.038190332031249996,0.108461594,0.031766877,0.034366641
4.664,0.039841668,0.038189492,0.108461859,0.031766039,0.034367313
4.668,0.039840996,0.038188184,0.10846236718749999,0.031766072,0.034368688
4.672,0.039840527,0.038187918,0.10846307031249999,0.031766607421874996,0.03436909
4.676,0.039840895,0.038187984,0.10846209374999999,0.031766441,0.034367648437499995
4.68,0.039841031,0.038187816,0.10846051562499999,0.031766475,0.034366305
4.684,0.039840492,0.038188050781249996,0.108460188,0.031766541,0.034366238281249996
4.688,0.039840156,0.038187078124999996,0.108458508,0.031765938,0.03436607
4.692,0.039839957,0.038186105468749995,0.108457633,0.031765601562499995,0.034365902
4.696,0.039839621,0.038185773,0.108456664,0.031766406,0.034367246
4.7,0.039838949218749996,0.038184801,0.108455258,0.03176634,0.034368855
4.704,0.039838984,0.03818309,0.108454984,0.031765601562499995,0.034368719
4.708,0.039839218749999995,0.038182015624999996,0.10845432031249999,0.031764061,0.034368855
4.712,0.039839050781249996,0.038180374999999996,0.108452641,0.031762953,0.034368754
4.716,0.039839352,0.038180105468749996,0.10845207,0.031763322,0.034367210937499997
4.72,0.039839453,0.038179938,0.108451734,0.031764562499999996,0.034366371
4.724,0.039838852,0.03818007,0.10845157,0.031764932,0.034366609374999996
4.728,0.039838617,0.038181246093749996,0.108451031,0.0317651,0.034367277343749995
4.732,0.039839824,0.038181547,0.108450023,0.031765066,0.034367414
4.736,0.039840023,0.038180976562499996,0.108448281,0.031764598,0.034368148437499996
4.74,0.039838382812499996,0.038180171874999995,0.10844760937499999,0.03176416,0.034370261718749996
4.744,0.039837207031249995,0.038179602,0.108448047,0.031763592,0.034371438
4.748,0.039836672,0.03817873,0.108446844,0.031762719,0.034371738
4.752,0.039836203,0.038178261718749995,0.10844593749999999,0.031762752,0.034371570312499995
4.756,0.039836437499999995,0.038179031249999995,0.10844657031249999,0.03176235,0.034369793
4.76,0.039836469,0.038179535,0.10844801562499999,0.031763121,0.034369023
4.764,0.039835230468749996,0.038179367,0.108447844,0.031763691406249996,0.034372207
4.768,0.039833754,0.038177727,0.108445836,0.031763826171874995,0.034373547
4.772,0.039832347656249996,0.038176754,0.108444023,0.031763289,0.034373210937499996
4.776,0.039830367,0.038175914062499997,0.108443719,0.031762854,0.034372809
4.78,0.039829059,0.038174438,0.108442313,0.031764027,0.034373210937499996
4.784,0.039826312499999995,0.038171656,0.108439734,0.031765033,0.034374285
4.788,0.039823395,0.038170148437499996,0.10844030468749999,0.031765904,0.034374789
4.792,0.039822187499999995,0.038168641,0.108440836,0.031766072,0.034375457
4.796,0.039820645,0.038167968749999996,0.108441141,0.031766004,0.034375625
4.8,0.039818765624999995,0.038166695,0.108441539,0.031766307,0.034376566406249996
4.804,0.039816855468749995,0.038165285,0.10844224999999999,0.031766742187499995,0.034377168
4.808,0.039815984374999995,0.03816391,0.108442281,0.031768016,0.034377805
4.812,0.039814813,0.038162504,0.108442648,0.031769591796874996,0.034378676
4.816,0.039814039,0.038161398,0.10844282,0.031770063,0.034380152
4.82,0.039812664062499996,0.038159855,0.108441977,0.031769459,0.034380957
4.824,0.039812195,0.038159753906249996,0.10844224999999999,0.031768585937499996,0.034380152
4.828,0.039812969,0.038159820312499995,0.10844274999999999,0.031768285,0.034379078
4.832,0.039813402,0.03815952,0.10844288281249999,0.031769021,0.034377906
4.836,0.039813301,0.038159184,0.10844399218749999,0.03176966,0.034377637
4.84,0.039813504,0.038159152343749995,0.108444258,0.031770195,0.03437841
4.844,0.039813469,0.038158613281249996,0.108444664,0.031769861328124996,0.034377906
4.848,0.039812027,0.038157375,0.10844536718749999,0.031768453,0.034378207
4.852,0.039810921874999995,0.03815734,0.108446336,0.031767681640624996,0.034377941
4.856,0.039810621,0.038157707,0.108446742,0.03176748,0.034377637
4.86,0.039810820312499995,0.03815657,0.108445703,0.031767246,0.034378176
4.864,0.039810184,0.038155965,0.108443922,0.031765535,0.034378746093749996
4.868,0.039808843749999996,0.038155297,0.108443719,0.031764361,0.034379414062499995
4.872,0.039807972656249996,0.038154523,0.10844282,0.03176416,0.034380086
4.876,0.039808172,0.03815402,0.108440906,0.031763691406249996,0.034380355
4.88,0.039808809,0.038153852,0.108437992,0.031762484,0.034380254
4.884,0.039809113281249996,0.038153617187499995,0.108435375,0.031761277,0.034380254
4.888,0.039809348,0.038153215,0.108433734,0.031761277,0.034378746093749996
4.892,0.039809145,0.038152277,0.10843228906249999,0.031761479,0.034378176
4.896,0.039808441,0.038150902,0.10843084374999999,0.031760775390624996,0.034378844
4.9,0.039808375,0.038149898437499996,0.10842857,0.031759701,0.034379281
4.904,0.039808105,0.038148957,0.10842672656249999,0.031759533203124996,0.03438059
4.908,0.039807101562499995,0.038147816,0.10842632031249999,0.031760338,0.034381191
4.912,0.039806933593749996,0.038147316,0.10842464843749999,0.031760439,0.034380554687499995
4.916,0.039807266,0.038147683593749995,0.108422766,0.031759601562499996,0.03437948
4.92,0.039807871093749995,0.038147316,0.10842139062499999,0.031758227,0.034378141
4.924,0.039807031,0.038147215,0.108420391,0.031758395,0.034378578124999996
4.928,0.039807199,0.038146914062499995,0.10841967968749999,0.031757992,0.034379047
4.932,0.039807301,0.038146445,0.10841910937499999,0.031757488281249996,0.034379582
4.936,0.039806297,0.038145973,0.108417875,0.031757623046874996,0.034380621
4.94,0.039804953,0.038144969,0.108416664,0.031757891,0.034381863
4.944,0.039804285,0.038145305,0.108416836,0.031757723,0.034380789
4.948,0.039803949218749995,0.038146277,0.108415891,0.031757154,0.034379551
4.952,0.039804148,0.03814584,0.108414281,0.031756148,0.034378644531249995
4.956,0.039803781249999996,0.038146578,0.108412945,0.031755947,0.034377707031249996
4.96,0.039803813,0.038147012,0.108411906,0.031756551,0.034377137
4.964,0.039803679687499996,0.03814698,0.108410164,0.031756885,0.034378676
4.968,0.039803781249999996,0.038146644531249996,0.10840898437499999,0.031755578124999996,0.03437975
4.972,0.039804316,0.038146309,0.10840855468749999,0.031755476562499996,0.034379984
4.976,0.039804117,0.038146074,0.108408086,0.031756885,0.034381359
4.98,0.039804082,0.038144934,0.108404156,0.031756148,0.034383102
4.984,0.039803547,0.038144164,0.10840288281249999,0.031755879,0.034383672
4.988,0.039802605468749995,0.038144164,0.10840288281249999,0.03175598,0.034383707031249995
4.992,0.039801835937499995,0.038143461,0.108402688,0.031755879,0.034384277
4.996,0.039800262,0.038142722656249996,0.10840084374999999,0.031755344,0.03438498
5,0.039799188,0.038142387,0.10839939843749999,0.031755813,0.034384008
5.004,0.039799422,0.038141883,0.10839946874999999,0.031755509765624995,0.034382667968749996
5.008,0.039800695312499995,0.038140980468749995,0.108398664,0.031753867,0.034381395
5.012,0.039801367,0.038139773437499996,0.10839675,0.031752593749999995,0.034379852
5.016,0.039800461,0.038139203,0.10839614843749999,0.031752729,0.034379316
5.02,0.039799925781249995,0.038140039,0.108396883,0.031753197,0.034378543
5.024,0.039799488281249996,0.038139402,0.10839607812499999,0.031753299,0.034378441
5.028,0.039799152,0.038139871,0.108396586,0.031753098,0.03437757
5.032,0.039799386718749996,0.038140945,0.108397656,0.03175323,0.034376969
5.036,0.039799925781249995,0.038140645,0.108397422,0.031752425781249996,0.034377168
5.04,0.039799957,0.038140273,0.108397148,0.031750918,0.034377335937499996
5.044,0.039799054687499995,0.038139371,0.108397453,0.031750281,0.034378914
5.048,0.039798148,0.038139066,0.108398258,0.031750414062499996,0.034379984
5.052,0.039797242,0.038139300781249996,0.108398898,0.03175085,0.034379113
5.056,0.039797074,0.038139300781249996,0.108399531,0.031751186,0.034377402343749995
5.06,0.039796874999999995,0.038139738281249995,0.108400234,0.031751756,0.034375996
5.064,0.039796003906249995,0.038139300781249996,0.1084,0.031753063,0.034376734374999995
5.068,0.039794727,0.038139671874999996,0.108399297,0.031752996,0.034377503906249995
5.072,0.039794727,0.038140039,0.10840017187499999,0.031752125,0.034377469
5.076,0.039795969,0.038140339843749996,0.108400367,0.031751252,0.034377805
5.08,0.039796738,0.038140945,0.108399367,0.031751119,0.03437784
5.084,0.039797445,0.038141145,0.108398797,0.031751453124999995,0.034377605468749996
5.088,0.039797879,0.038140742,0.108399633,0.031751621,0.034377066
5.092,0.039797813,0.038140777,0.108400273,0.031752092,0.034376598
5.096,0.03979607,0.038140980468749995,0.108401609,0.031752762,0.034375828
5.1,0.039794761718749995,0.038140879,0.108402219,0.031753867,0.034376566406249996
5.104,0.039794227,0.038141047,0.10840217968749999,0.031753599609374995,0.034377402343749995
5.108,0.039793891,0.038139938,0.108401813,0.031752191,0.034378141
5.112,0.039793922,0.038138800781249996,0.10840050781249999,0.031751287,0.034377941
5.116,0.039793722656249995,0.038137761718749996,0.108399328,0.031750648,0.034378273437499995
5.12,0.039793387,0.038136754,0.108399133,0.031750482,0.034378676
5.124,0.039793051,0.038136887,0.108399664,0.03175008,0.03437784
5.128,0.039792953124999995,0.038137895,0.108400906,0.031749509765624996,0.034378039
5.132,0.039792414062499996,0.038138027,0.10840084374999999,0.031749342,0.034379984
5.136,0.03979218,0.038137961,0.108399328,0.031748471,0.03437948
5.14,0.039791844,0.038138297,0.10839815624999999,0.031747631,0.034379148
5.144,0.039791710937499995,0.038139133,0.10839675,0.031746390624999996,0.034379316
5.148,0.039791746,0.038138968749999995,0.108396547,0.031746458984374996,0.034379246093749996
5.152,0.039791777,0.038138566,0.10839625,0.031747195,0.034379347656249996
5.156,0.039791676,0.038139066,0.10839614843749999,0.031748234374999997,0.034379684
5.16,0.039791676,0.038139637,0.10839510937499999,0.031749509765624996,0.034381257812499996
5.164,0.03979141,0.038139371,0.108393398,0.031750146,0.034382199
5.168,0.039791242,0.038139102,0.10839262499999999,0.031748671874999995,0.034382699
5.172,0.039791542968749996,0.038139938,0.10839275781249999,0.031747666015624995,0.03438307
5.176,0.039791879,0.038141047,0.108393227,0.031747531249999995,0.034382367
5.18,0.039791676,0.038141414,0.108392859,0.031747464843749996,0.034381461
5.184,0.039791039,0.038140812499999996,0.108392227,0.031747967,0.034380757812499996
5.188,0.039790637,0.038141648,0.108392359,0.031748771,0.034380051
5.192,0.039790637,0.038141851562499995,0.108392492,0.031747934,0.034379852
5.196,0.039790102,0.038141547,0.108392727,0.031747832,0.03437948
5.2,0.039790035,0.038141949,0.108392023,0.031749207,0.034379785156249995
5.204,0.039789699218749995,0.038141648,0.10838893749999999,0.031751219,0.03438059
5.208,0.039789566,0.038141215,0.108388867,0.031751186,0.034379246093749996
5.212,0.039788793,0.038140507812499995,0.108389008,0.031750246,0.034379047
5.216,0.039788390624999996,0.038140074,0.108388906,0.031749844,0.034377402343749995
5.22,0.039787754,0.038140879,0.108388672,0.03174924,0.034376297
5.224,0.03978618,0.038141383,0.10838582031249999,0.031748336,0.034377102
5.228,0.039785273,0.038140777,0.108383,0.031747063,0.034376332
5.232,0.039784570312499996,0.038140676,0.10838122656249999,0.031748201,0.034376734374999995
5.236,0.039783797,0.03814091,0.108380523,0.031749509765624996,0.034377335937499996
5.24,0.03978316,0.038141012,0.10838039062499999,0.031749945,0.03437757
5.244,0.039782660156249997,0.038141449,0.10838267187499999,0.031750615,0.034379246093749996
5.248,0.039782289,0.038141383,0.108383906,0.031751287,0.034380051
5.252,0.03978202,0.038141145,0.10838475,0.031751789,0.034379684
5.256,0.039781585937499996,0.038141078,0.108385484,0.031752293,0.034379449
5.26,0.03978209,0.038141215,0.10838669531249999,0.031751287,0.034380152
5.264,0.039782824,0.038141949,0.108386555,0.031750816,0.034380523
5.268,0.039783297,0.038142285,0.108383477,0.031749945,0.034380453
5.272,0.039782660156249997,0.038141383,0.108380156,0.031748838,0.034380855
5.276,0.039783531,0.038140812499999996,0.108378781,0.031748102,0.034381257812499996
5.28,0.039783965,0.038141078,0.10837810937499999,0.031746492187499996,0.034381695
5.284,0.039783898,0.038140207,0.108377641,0.031745216796874996,0.034381023
5.288,0.039783898,0.038138633,0.108377875,0.031745252,0.034380355
5.292,0.039783934,0.038137457031249995,0.108376805,0.031744178,0.034379984
5.296,0.039784402,0.038138968749999995,0.108376602,0.031744715,0.034377637
5.3,0.039784504,0.038139637,0.108376297,0.031746057,0.034377371
5.304,0.039784468749999996,0.038139371,0.10837462499999999,0.031746057,0.03437727
5.308,0.039784602,0.038139168,0.10837180468749999,0.031745754,0.034377438
5.312,0.039784602,0.038138766,0.10836694531249999,0.031744412,0.034377805
5.316,0.039784301,0.038137324,0.108365336,0.031743574,0.034378176
5.32,0.03978316,0.038137023,0.108366305,0.031743207,0.03437841
5.324,0.039782324,0.038137223,0.108367211,0.031743811,0.034379047
5.328,0.039782558593749996,0.038136957,0.10836640624999999,0.031744279,0.034378441
5.332,0.03978316,0.038137761718749996,0.10836486718749999,0.031744480468749996,0.034377605468749996
5.336,0.039783699218749996,0.038137996,0.10836238281249999,0.031744613,0.034377637
5.34,0.039783262,0.038137023,0.108361078,0.03174391,0.034378242
5.344,0.039782258,0.038136922,0.108361109,0.031744748,0.034378176
5.348,0.039782793,0.038137121,0.108360875,0.031744883,0.034378578124999996
5.352,0.039782121,0.038137359,0.108359367,0.031743709,0.034378344
5.356,0.039781551,0.038137895,0.108357086,0.031743306640624996,0.034377137
5.36,0.039781484374999995,0.038137691,0.108353602,0.031742736,0.034376766
5.364,0.039780445312499996,0.038137359,0.10835189062499999,0.03174267,0.034376934
5.368,0.039780313,0.038137828124999995,0.108351789,0.031742,0.034376632812499995
5.372,0.039779809,0.038137258,0.108352359,0.031740256,0.034376969
5.376,0.039778871,0.038137191,0.108350445,0.031739787,0.034375996
5.38,0.039778566,0.038136789062499996,0.108349742,0.031739316406249996,0.034375391
5.384,0.039779137,0.038136519531249996,0.10835121874999999,0.031738545,0.03437482
5.388,0.039779406249999996,0.038136789062499996,0.108352125,0.031738043,0.03437375
5.392,0.039778398,0.038136417968749996,0.108351656,0.031737607,0.034374152
5.396,0.039777094,0.038136687499999995,0.108349781,0.031736701,0.034373547
5.4,0.039775348,0.038137594,0.108346797,0.031736836,0.034372441406249996
5.404,0.039774613281249996,0.038137926,0.10834404687499999,0.031736734,0.034372039
5.408,0.039773972656249997,0.038137324,0.108343609,0.031736332,0.03437177
5.412,0.039773167968749995,0.038136687499999995,0.10834407812499999,0.031736936,0.034372171874999996
5.416,0.039772566,0.038135949,0.10834441406249999,0.031737037,0.034372375
5.42,0.039771863,0.038136316406249995,0.108344984,0.031737473,0.034372406
5.424,0.039772164,0.038137324,0.108344883,0.031737707,0.03437127
5.428,0.03977193,0.038137191,0.108342398,0.031737842,0.034372004
5.432,0.039771426,0.038137055,0.108339047,0.031737842,0.034372644531249996
5.436,0.039771359374999996,0.038136754,0.108336297,0.031736734,0.034373113
5.44,0.039771492,0.038136652,0.108334523,0.031735092,0.034373047
5.444,0.039771324,0.038136519531249996,0.108334117,0.031734154,0.034372074
5.448,0.039770824,0.038136016,0.108333352,0.031733482,0.03437177
5.452,0.039770218749999996,0.038135445312499995,0.108331977,0.031733449,0.034372141
5.456,0.039768813,0.038134742,0.10833234374999999,0.031732678,0.034372477
5.46,0.039768879,0.038134172,0.108332945,0.031732208984374996,0.034372242
5.464,0.039769684,0.038133535156249995,0.108332109,0.031732074218749996,0.034371871
5.468,0.039769347656249995,0.038133168,0.108330703,0.031732208984374996,0.034371402343749996
5.472,0.039768410156249996,0.038133433593749995,0.108327313,0.031732143,0.034370766
5.476,0.039768207031249996,0.038133468749999996,0.108325805,0.031731236328124995,0.034369426
5.48,0.039768578124999995,0.038133,0.10832486718749999,0.031729527,0.034370261718749996
5.484,0.039767773,0.038131926,0.108321953,0.031728891,0.034372273437499996
5.488,0.039766898437499996,0.038132094,0.108319906,0.031729158203124996,0.034372441406249996
5.492,0.039767137,0.038132664062499995,0.10831957,0.03172966,0.034371602
5.496,0.039768008,0.038132563,0.108319703,0.031729191406249996,0.034370531249999996
5.5,0.039767637,0.038132765624999995,0.108319875,0.031728252,0.034368453
5.504,0.039765961,0.038132563,0.108319969,0.031728453,0.034368184
5.508,0.039764015624999996,0.038130922,0.108320039,0.031728119,0.03436768
5.512,0.039764285156249995,0.038130285,0.10831977343749999,0.031728050781249996,0.034366773
5.516,0.039764621,0.038130484374999996,0.108316484,0.031729359,0.034367378906249996
5.52,0.039763781,0.038130148,0.108313703,0.031729996,0.03436882
5.524,0.039763515624999995,0.03812948,0.10831407,0.031729762,0.034368754
5.528,0.039763848,0.038129613281249995,0.108315547,0.031729326171874996,0.034368453
5.532,0.039764219,0.038129746,0.108316352,0.031728957,0.034367078
5.536,0.039764723,0.038130016,0.108317461,0.031727783,0.034366539
5.54,0.039764453,0.038129813,0.108318164,0.031727348,0.034366941
5.544,0.039763918,0.03812941,0.108318164,0.031727482,0.034367043
5.548,0.039762874999999996,0.038129109,0.10831507812499999,0.031727717,0.034366473
5.552,0.03976207,0.038129445312499996,0.10831272656249999,0.031727482,0.03436607
5.556,0.039762809,0.038129313,0.108312195,0.031726342,0.034365636718749995
5.56,0.039762406,0.038128406249999997,0.10831064843749999,0.031725771,0.03436607
5.564,0.039761973,0.038127332031249996,0.108309984,0.031725604,0.034366105
5.568,0.039761672,0.038125891,0.108308875,0.031724766,0.03436473
5.572,0.039759121093749995,0.038125523437499996,0.10830897656249999,0.031725302734374995,0.034365133
5.576,0.039757914,0.038125723,0.10830944531249999,0.031727113,0.034365402
5.58,0.039758855,0.038126292968749996,0.108308133,0.031727783,0.03436493
5.584,0.039758922,0.038126629,0.10830474999999999,0.031726979,0.034365234
5.588,0.03975768,0.038126394531249996,0.108302703,0.031726275390624996,0.034365938
5.592,0.039757277,0.038126695,0.10830287499999999,0.031725771,0.034365031
5.596,0.039756875,0.038127230468749995,0.10830467968749999,0.031725471,0.034363723
5.6,0.039756941406249996,0.038128238,0.108306461,0.031726039062499996,0.034364058593749996
5.604,0.039756574,0.03812941,0.108308102,0.031727885,0.034365332
5.608,0.039755468749999995,0.038129343749999996,0.10830968,0.031728789,0.034366105
5.612,0.039754762,0.038130418,0.108309711,0.031727648,0.0343655
5.616,0.039754227,0.038130652,0.108309883,0.031725705,0.03436473
5.62,0.039754094,0.038130449,0.1083075,0.031724766,0.034364058593749996
5.624,0.039754395,0.038130082,0.108304352,0.0317249,0.034362953
5.628,0.039754563,0.038129145,0.10830317187499999,0.031724631,0.03436302
5.632,0.039754461,0.038129277,0.108302742,0.031724063,0.034363891
5.636,0.039753187499999995,0.038128977,0.108302773,0.031724027343749996,0.03436473
5.64,0.039752046874999995,0.038128875,0.108303445,0.031723592,0.034365434
5.644,0.039751074,0.038129445312499996,0.108304719,0.031722889,0.034364328124999996
5.648,0.039751378906249996,0.038130082,0.108303945,0.031722117187499996,0.034363391
5.652,0.039752148437499996,0.038130285,0.108303273,0.031721547,0.034362214843749996
5.656,0.039751578,0.03813025,0.108303781,0.03172148,0.034362383
5.66,0.039750203,0.038131523437499995,0.108304109,0.031721514,0.034362551
5.664,0.039749699,0.038132496093749996,0.10830404687499999,0.03172185,0.03436141
5.668,0.03974923,0.038132297,0.108302977,0.031721648,0.034361813
5.672,0.039748124999999995,0.038132059,0.108302977,0.031721547,0.034363488
5.676,0.039747621,0.038131824,0.108301531,0.031721547,0.034364395
5.68,0.039747422,0.038130852,0.10829948437499999,0.031721916,0.034364058593749996
5.684,0.039746214843749995,0.038130352,0.108296734,0.031721514,0.03436332
5.688,0.039746214843749995,0.038131324,0.108293656,0.031720643,0.03436198
5.692,0.039746648,0.038131492,0.108294289,0.031719838,0.034360977
5.696,0.03974598,0.038131824,0.10829496093749999,0.031719535,0.034360672
5.7,0.039745242187499995,0.038130922,0.108294594,0.031718964843749996,0.03436084
5.704,0.039745441,0.038129914,0.10829455468749999,0.031717725,0.034360406249999996
5.708,0.039745441,0.038128539,0.10829147656249999,0.031717021484374996,0.034360941
5.712,0.039745039,0.038127633,0.108290906,0.031717054687499996,0.034361309
5.716,0.039744066,0.038127301,0.10829006249999999,0.03171749,0.034361546874999996
5.72,0.03974293,0.038126797,0.10828899218749999,0.031717424,0.034361512
5.724,0.039742258,0.038126965,0.108288391,0.031717087890624995,0.034361043
5.728,0.039742426,0.038127703124999995,0.108288086,0.031716418,0.034360641
5.732,0.039742859374999995,0.038127703124999995,0.10828671093749999,0.031716148,0.034360809
5.736,0.039743164062499996,0.038127266,0.108285406,0.031715445,0.034361175781249996
5.74,0.03974266,0.038127066,0.10828567187499999,0.031715211,0.034362113281249995
5.744,0.039741988,0.038126460937499995,0.108284328,0.031714977,0.034362316406249996
5.748,0.03974048,0.038125957,0.10828275781249999,0.031714977,0.034361879
5.752,0.039739910156249995,0.038126292968749996,0.108280039,0.031714406,0.034361914
5.756,0.039740078,0.03812673,0.10827500781249999,0.031713367,0.034362551
5.76,0.039740281249999995,0.038126394531249996,0.108274344,0.031713568,0.034362484374999995
5.764,0.039740715,0.038127133,0.10827541406249999,0.031712863281249996,0.034361379
5.768,0.039740414,0.038127938,0.108276523,0.031712965,0.034360641
5.772,0.039740445,0.038128203124999996,0.10827468,0.031713031249999996,0.034360539
5.776,0.039741082,0.038127398,0.10827089062499999,0.031712563,0.034360136718749996
5.78,0.039740179687499995,0.038127098,0.108269078,0.031712395,0.034361043
5.784,0.039739172,0.038128472656249995,0.10826857031249999,0.031712729,0.034361242
5.788,0.039738906,0.038127801,0.108268672,0.031713031249999996,0.034360977
5.792,0.039739004,0.038127969,0.10826807031249999,0.031712527,0.034361109
5.796,0.039738637,0.038128304687499996,0.108269281,0.031712059,0.034360238
5.8,0.039737297,0.038128574218749996,0.108270656,0.031712896484374996,0.034360172
5.804,0.039736859374999996,0.038129379,0.10827202343749999,0.031714305,0.034360473
5.808,0.039736559,0.038130184,0.108273031,0.031715311,0.034359699
5.812,0.039735184,0.038130585937499996,0.10827396874999999,0.031715713,0.034359801
5.816,0.039734277,0.038131223,0.108273367,0.031715814,0.034359867
5.82,0.039733406,0.038131324,0.108272195,0.031714908203124996,0.034360035156249996
5.824,0.039732434,0.038131223,0.108271492,0.031714137,0.034359801
5.828,0.039732969,0.038131894531249995,0.108270516,0.031713635,0.034357555
5.832,0.039733605468749995,0.038132965,0.10826968,0.031713701,0.034356011718749996
5.836,0.039733574,0.03813377,0.108268773,0.031713232,0.03435484
5.84,0.039734078124999996,0.038133066,0.108266797,0.031713299,0.034354101562499996
5.844,0.039734043,0.038132394531249995,0.108263375,0.031712328,0.034354871093749996
5.848,0.039733273,0.038132496093749996,0.10826250781249999,0.03171159,0.034355914
5.852,0.039732871,0.038133199,0.108261328,0.031711355,0.034356785
5.856,0.039731996,0.038132563,0.10825757812499999,0.031710215,0.034357523437499995
5.86,0.039731664,0.038131422,0.108252914,0.031709344,0.034357789
5.864,0.039731191,0.038131391,0.108250969,0.03171035,0.034357992
5.868,0.03972925,0.038130785,0.108250367,0.031710215,0.034358629
5.872,0.039728445,0.038129746,0.108250164,0.031709845703124996,0.034358863
5.876,0.039728847656249996,0.038129313,0.108250203,0.031709545,0.034357926
5.88,0.039728309,0.038130082,0.10825057031249999,0.03171065,0.034356882812499996
5.884,0.039728578,0.038130285,0.108250133,0.031710752,0.034356179687499995
5.888,0.039728344,0.038129645,0.108249461,0.031710316,0.034356214843749996
5.892,0.039727906,0.038130214843749996,0.108246648,0.03171092,0.034357219
5.896,0.039727773437499996,0.038131457031249996,0.108243258,0.031710818,0.034357992
5.9,0.039726969,0.038131926,0.108242828,0.031711322,0.034358292968749995
5.904,0.039725797,0.038131558593749997,0.108243961,0.031711254,0.034358258
5.908,0.039724922,0.038131691,0.10824476562499999,0.031710617,0.034358492
5.912,0.039724488,0.038131824,0.108243828,0.031710584,0.034358828
5.916,0.039724789,0.038131253906249996,0.10824272656249999,0.031709845703124996,0.034357855
5.92,0.039725023,0.038130585937499996,0.108242156,0.031708438,0.034355543
5.924,0.039724789,0.03812998,0.108240547,0.031708974609374996,0.034354035
5.928,0.039724519531249995,0.038129781,0.10823728906249999,0.031709779,0.034354269531249995
5.932,0.039723883,0.038130082,0.10823624999999999,0.031710281,0.034354168
5.936,0.039723683593749996,0.03813082,0.108236523,0.031709713,0.034353598
5.94,0.039723348,0.038130652,0.108236484,0.031709443,0.034354066
5.944,0.039722645,0.038130585937499996,0.108236484,0.031709007812499995,0.034354906
5.948,0.039722309,0.038131961,0.10823645312499999,0.031708103515624995,0.034355309
5.952,0.039722176,0.038132226562499996,0.10823484374999999,0.031707164,0.034355309
5.956,0.039721941406249996,0.038131824,0.10823242968749999,0.031705186,0.034355543
5.96,0.039722207,0.038131558593749997,0.108229047,0.031703174,0.034354707
5.964,0.039721871,0.038130585937499996,0.10822693,0.031702234,0.034353164
5.968,0.039721402,0.03812941,0.108227234,0.031702168,0.034351688
5.972,0.039720699218749995,0.038129578,0.10822803906249999,0.031701798828124995,0.034352023
5.976,0.039719594,0.038130047,0.108228773,0.031700726562499996,0.034352426
5.98,0.039718988,0.038130047,0.108229414,0.031699688,0.034352257812499995
5.984,0.039718754,0.038129883,0.10822964843749999,0.031698615,0.034352023
5.988,0.039718789062499996,0.038130719,0.108230086,0.031699285,0.034352257812499995
5.992,0.039719457031249995,0.038131324,0.108228773,0.031700391,0.034353195
5.996,0.039719761718749996,0.038131492,0.108226766,0.031701498,0.034353598
6,0.039718555,0.038131355468749996,0.10822542187499999,0.03170227,0.034353801
6.004,0.039718016,0.038130753906249995,0.10822555468749999,0.031702504,0.034354539
6.008,0.039718890624999996,0.038129746,0.108225727,0.031701732,0.034355343749999996
6.012,0.039719293,0.038129813,0.10822616406249999,0.031700225,0.034355109
6.016,0.039718687499999995,0.038130687499999996,0.108226227,0.031699621,0.034355109
6.02,0.039718285,0.038130988,0.10822666406249999,0.031699285,0.034355273
6.024,0.039717781,0.038131691,0.10822649999999999,0.031698982,0.034354504
6.028,0.039717781,0.038131558593749997,0.108226398,0.031698648,0.034352695
6.032,0.039718285,0.038131355468749996,0.108225594,0.03169848,0.034351086
6.036,0.039718219,0.038132394531249995,0.108226063,0.031698615,0.034350313
6.04,0.039718922,0.038133602,0.10822659374999999,0.03169791,0.034349172
6.044,0.039719223,0.038134777343749995,0.108226094,0.031697373,0.034348871
6.048,0.039719055,0.038135648437499996,0.10822555468749999,0.031697105,0.034348602
6.052,0.039717749999999996,0.038135949,0.10822593,0.031697775390624995,0.034349574
6.056,0.039716507812499996,0.038136585937499995,0.10822442187499999,0.031697811,0.034351184
6.06,0.039716207,0.038136519531249996,0.108220633,0.031697843749999996,0.034352359374999995
6.064,0.039715535156249995,0.038136219,0.108218484,0.031697742187499996,0.03435266
6.068,0.039715468749999996,0.038136016,0.108216609,0.031696938,0.034352527
6.072,0.039715938,0.038135211,0.108213859,0.031696133,0.034351922
6.076,0.039715535156249995,0.038135246,0.10821244531249999,0.0316961,0.034351922
6.08,0.039715602,0.038135582,0.108211547,0.031696871093749995,0.034352191406249996
6.084,0.039715906249999995,0.038135914,0.10821107031249999,0.031697475,0.034352527
6.088,0.03971527,0.038135914,0.108210336,0.031696703124999996,0.034353195
6.092,0.039714934,0.038137055,0.108209227,0.031696201,0.034352793
6.096,0.039715938,0.038137625,0.10820587499999999,0.031696234,0.034351418
6.1,0.039716406249999996,0.038137594,0.108201453,0.031695965,0.034350012
6.104,0.039715602,0.038137793,0.10819960937499999,0.031696535,0.034349742
6.108,0.039714297,0.038137691,0.10819849999999999,0.031696033,0.034348535
6.112,0.039713624999999995,0.038136855,0.108196992,0.031696133,0.034348637
6.116,0.039712082,0.038135512,0.10819504687499999,0.031696871093749995,0.034349039062499996
6.12,0.039710039,0.038134574,0.10819434374999999,0.031696904,0.034349242
6.124,0.039709,0.038133906249999995,0.108192734,0.031696871093749995,0.034350012
6.128,0.039707891,0.03813273,0.108191797,0.031696535,0.034350078124999996
6.132,0.039707421874999996,0.038133265624999996,0.10819045312499999,0.031696,0.034350313
6.136,0.039708394531249996,0.038134777343749995,0.108188711,0.031694959,0.034350145
6.14,0.039709332031249996,0.038136453,0.108188547,0.031693685546874996,0.034348738
6.144,0.039709969,0.038137258,0.10818783593749999,0.031693283,0.034347934
6.148,0.039708832031249995,0.038137191,0.108186531,0.031693184,0.034347796874999996
6.152,0.039707691406249995,0.038136184,0.108185023,0.031692311,0.034347832
6.156,0.039706918,0.038135883,0.10818331249999999,0.031691607,0.03434773
6.16,0.039706347656249995,0.038135914,0.10818136718749999,0.031691139,0.034348102
6.164,0.039705176,0.038136184,0.108178984,0.031691139,0.034347934
6.168,0.039704605,0.038136417968749996,0.10817865624999999,0.0316904,0.034347964843749995
6.172,0.039703699,0.03813682,0.108178148,0.031690098,0.034348504
6.176,0.039703566,0.038136957,0.10817667187499999,0.031690568,0.034348871
6.18,0.039703633,0.038136754,0.10817607,0.031689763671874996,0.034348133
6.184,0.039702257812499996,0.038135984,0.108175703,0.031689092,0.034348672
6.188,0.03970102,0.03813491,0.10817492968749999,0.031689763671874996,0.034348504
6.192,0.039700012,0.038134273,0.108174156,0.03169107,0.034349207031249995
6.196,0.039699676,0.038134609374999996,0.10817359374999999,0.031691004,0.034348738
6.2,0.039699308593749996,0.03813518,0.108172789,0.031690266,0.034347128906249996
6.204,0.039699578124999996,0.038135480468749997,0.10817168,0.031689227,0.034345652
6.208,0.03970018,0.038135348,0.108170102,0.031687785156249995,0.034343874999999996
6.212,0.039700785,0.038135078,0.10816923437499999,0.031686578124999996,0.034342969
6.216,0.039700684,0.038135715,0.108168563,0.031686109,0.03434193
6.22,0.039700347656249996,0.038135613,0.10816724999999999,0.031686143,0.034341695
6.224,0.039699578124999996,0.03813568,0.108167055,0.031685773,0.034341395
6.228,0.039699039,0.038135749999999996,0.10816682,0.031684834,0.034340656
6.232,0.039698906,0.038136117,0.10816584374999999,0.031685203,0.034340824218749996
6.236,0.039698738,0.038136453,0.10816464062499999,0.03168584,0.034342602
6.24,0.039699141,0.038136484,0.10816272656249999,0.031685035,0.034343305
6.244,0.039699039,0.038136219,0.108162391,0.031683728515624995,0.034342132812499995
