time,F8,F4,Fz,F3,F7
0,0.031220275,0.074215586,0.05049359,0.031504220703124995,0.032757182
0.004,0.031221852,0.074215148,0.050489602,0.031501908,0.032757449
0.008,0.031223059,0.074213844,0.050482828,0.031499863,0.032757148
0.012,0.031224031,0.074212164,0.050481723,0.031498354,0.032756611
0.016,0.031224667968749998,0.074210922,0.050490839843749996,0.031497918,0.03275641
0.02,0.031225607,0.074209953,0.050492249999999995,0.031496879,0.032757584
0.024,0.031226578124999998,0.074207938,0.050488394531249994,0.031495972656249996,0.032758925781249996
0.028,0.031227217,0.074205758,0.050482324,0.031494699,0.032759025
0.032,0.031227249999999998,0.07420375,0.050483398,0.031492754,0.032760266
0.036,0.031227953,0.07420318,0.050492988,0.031491783,0.032761271
0.04,0.031229094,0.074202242,0.050493558593749995,0.031491949218749996,0.032761809
0.044,0.031230199218749997,0.074200664,0.050490305,0.031491748,0.032763184
0.048,0.031231643,0.074198688,0.050483836,0.031490777,0.03276382
0.052,0.031232379,0.074196203,0.050484504,0.031490105,0.032765094
0.056,0.031232748046874998,0.074194461,0.050495234374999996,0.031489771,0.032765598
0.06,0.031233183593749998,0.074193453,0.050495871,0.031489268,0.0327661
0.064,0.031233688,0.074193188,0.050492652,0.031489939,0.032767910156249996
0.068,0.031234291,0.074192484,0.050487422,0.031490408,0.032768347656249995
0.072,0.031234592,0.074191211,0.050487355468749995,0.031489939,0.032768684
0.076,0.031235531,0.074191008,0.050497210937499995,0.03148967,0.032769320312499996
0.08,0.031236436,0.074191141,0.050498117,0.03148957,0.032769988281249995
0.084,0.031237039,0.074191344,0.050494863281249996,0.03148833,0.03277066
0.088,0.031237810546874998,0.074189797,0.050488293,0.031486853515624996,0.032770089843749996
0.092,0.031238447,0.07418682,0.050488359,0.031484607,0.032769484
0.096,0.031239386718749998,0.074185477,0.050498249999999995,0.031483535,0.032770457
0.1,0.031239990234374997,0.074184672,0.050499691,0.031483133,0.032773609
0.104,0.031241063,0.074183797,0.050496977,0.031482529,0.032775355468749996
0.108,0.031242001953124997,0.074182461,0.050490672,0.031480449,0.032774715
0.112,0.03124274,0.074181484,0.050490507812499995,0.031478941406249995,0.032773176
0.116,0.031243645,0.074180953,0.050499324218749995,0.031478641,0.032773711
0.12,0.031244182,0.074180078,0.050499593749999995,0.031478773437499996,0.032776492
0.124,0.031245221,0.074178805,0.050496374999999996,0.031479445,0.032778539
0.128,0.031246695,0.074176758,0.050490136718749995,0.031478371,0.032777902
0.132,0.031247568,0.07417418,0.050490105,0.031476728515624997,0.032777031
0.136,0.031249076171874998,0.074172,0.050499758,0.031475789062499995,0.03277723
0.14,0.031250785156249995,0.074170891,0.050500664,0.031474684,0.032778304687499996
0.144,0.031251892578124996,0.074169719,0.050497715,0.031472771,0.032779309
0.148,0.031252631,0.074167234,0.05049141,0.031470291,0.032778304687499996
0.152,0.031253268,0.074164758,0.050492016,0.031468246,0.032777398
0.156,0.031253602,0.074163313,0.050501703,0.031467441,0.032777297
0.16,0.031254541,0.074161875,0.050504352,0.031467105,0.032778035156249996
0.164,0.031255814453124996,0.074160398,0.050501203,0.031465865,0.032778035156249996
0.168,0.031255949218749995,0.074157984,0.050493457,0.031464189,0.032776461
0.172,0.031256352,0.074155969,0.05049282,0.031461943,0.03277559
0.176,0.031256988,0.074154734,0.050502105468749996,0.031461004,0.032775355468749996
0.18,0.031258229,0.074152719,0.050502008,0.031460836,0.032776258
0.184,0.031259604,0.074150375,0.050497816,0.031460133,0.032776727
0.188,0.031260005859374995,0.074146781,0.050490672,0.031457484,0.032776124999999996
0.192,0.031260309,0.074143234,0.050489902,0.031455707,0.032777031
0.196,0.031261011718749995,0.074140984,0.050498453124999995,0.031455203,0.032777297
0.2,0.03126175,0.074138203,0.05049966,0.031455238,0.032778977
0.204,0.031262588,0.074135484,0.050496339843749995,0.031454634765624996,0.032780348
0.208,0.031262888671874996,0.074132266,0.050489063,0.031452656249999995,0.032780918
0.212,0.031263693,0.07412875,0.050488124999999995,0.031450711,0.032780383
0.216,0.031264465,0.074126336,0.050497883,0.031449503906249995,0.032780785
0.22,0.031264666,0.074125023,0.050499425781249996,0.031448834,0.032782898
0.224,0.031265471,0.074123313,0.050496105,0.031448197,0.032783066
0.228,0.031265807,0.074120531,0.050490539,0.031446654,0.032782395
0.232,0.031265639,0.074118352,0.050490507812499995,0.031445916,0.032781957031249996
0.236,0.031266107,0.074117109,0.050500027,0.031445146,0.032782965
0.24,0.031267080078124995,0.074116141,0.050502676,0.031445514,0.032783734
0.244,0.031268355,0.074114867,0.050499691,0.031445348,0.032784238281249996
0.248,0.031268957031249996,0.074112422,0.05049359,0.031443201,0.032783566
0.252,0.031269125,0.074110039,0.050494160156249995,0.031441324,0.03278293
0.256,0.031269561,0.074109398,0.050504183593749995,0.031440754,0.032783367187499995
0.26,0.031270467,0.0741085,0.050505527343749995,0.031440887,0.032785578
0.264,0.031271641,0.074107023,0.050503047,0.031440787,0.032788195
0.268,0.031272947,0.074105609,0.050498219,0.031439378906249996,0.032787824
0.272,0.031273316,0.074103234,0.050498887,0.031437836,0.032787422
0.276,0.03127392,0.07410132,0.050508476562499995,0.031436797,0.032788664
0.28,0.031275898,0.074100219,0.050508777,0.031436127,0.032790473
0.284,0.031277643,0.074098406,0.050505089843749996,0.031434785,0.032792117
0.288,0.031278514,0.074095625,0.050498386718749996,0.03143207,0.032792016
0.292,0.031278883,0.074091836,0.050498148,0.031430259765624996,0.032791379
0.296,0.031279553,0.074089188,0.050507605,0.031429588,0.032792117
0.3,0.031280928,0.074087172,0.050508578124999995,0.031428885,0.032791547
0.304,0.031281531,0.074084758,0.050505727,0.031428214843749996,0.032791648
0.308,0.031282201171874996,0.07408157,0.050499492187499995,0.031426705,0.03279232
0.312,0.031282302734374996,0.07407832,0.050500093749999996,0.031425801,0.032791715
0.316,0.031283072265624996,0.074076508,0.050509718749999995,0.031425666,0.03279252
0.32,0.031284212890624996,0.074075,0.050510320312499996,0.031425531,0.032794261718749995
0.324,0.03128542,0.074072523,0.050506598,0.031425566,0.032795637
0.328,0.031286426,0.074068867,0.050499691,0.031424291,0.032795805
0.332,0.031287063,0.074065383,0.050499054687499996,0.031422381,0.032795234374999996
0.336,0.0312879,0.074063305,0.050508476562499995,0.031420369,0.032795672
0.34,0.031288605,0.074061594,0.050509382812499996,0.03141933,0.032797246093749996
0.344,0.031289678,0.074060148,0.050505559,0.031418559,0.032797852
0.348,0.03129008,0.074057398,0.050499054687499996,0.031416078124999997,0.032796344
0.352,0.031290516,0.074054219,0.050499222656249995,0.031413227,0.032794898
0.356,0.031291488,0.074051664,0.050508945,0.031411316,0.032795402
0.36,0.031292527,0.074050391,0.050511797,0.031411215,0.032796242
0.364,0.031293131,0.074049219,0.050510992,0.031412087890624996,0.032796374999999996
0.368,0.031292695,0.074046172,0.050505527343749995,0.031411719,0.032799324
0.372,0.031292695,0.074042547,0.050504586,0.031410377,0.032803887
0.376,0.031294304687499996,0.07404007,0.050512836,0.031410076171874995,0.032805965
0.38,0.031295646,0.074039227,0.050514445312499996,0.031411182,0.032807676
0.384,0.031296619140624996,0.074038461,0.050513406,0.031411148,0.032809652343749995
0.388,0.031297388671874996,0.074036477,0.050509215,0.031410746,0.032810421874999995
0.392,0.031298496093749996,0.074033633,0.050509785,0.031409371,0.032811297
0.396,0.031299301,0.074031984,0.050519273,0.03140917,0.032812668
0.4,0.031300307,0.074031719,0.050520613281249994,0.031409473,0.032815082
0.404,0.031301646,0.074030477,0.050516992,0.031409707,0.032817363
0.408,0.031301313,0.074028766,0.050512098,0.031409002,0.032819375
0.412,0.031301646,0.074027594,0.050513472656249996,0.031407428,0.032820953124999996
0.416,0.031303658,0.074027625,0.050522558593749996,0.031406086,0.032821117
0.42,0.031305033,0.074027766,0.050523465,0.031405348,0.032821789062499995
0.424,0.03130624,0.074026625,0.050520343749999995,0.031405047,0.032823332
0.428,0.031306643,0.074023805,0.050515082,0.031403839843749996,0.032822258
0.432,0.031306107,0.074021391,0.050516859,0.0314029,0.032821922
0.436,0.031306945,0.074021492,0.050527086,0.031402934,0.032822629
0.44,0.031307816,0.074021125,0.050528863281249996,0.031402934,0.032825176
0.444,0.031308889,0.074020219,0.050526480468749996,0.0314026,0.032825512
0.448,0.031309593749999996,0.074018578,0.050520949,0.0314029,0.03282407
0.452,0.03131023,0.074016695,0.050522055,0.031403102,0.032822863281249996
0.456,0.03131023,0.074015992,0.050532113,0.0314026,0.032823632812499996
0.46,0.031310734374999996,0.074015695,0.050533051,0.031402398,0.03282598
0.464,0.031312275,0.074014656,0.05053027,0.03140317,0.032827758
0.468,0.031313515624999996,0.074012305,0.050523531249999996,0.031402432,0.032828359
0.472,0.031313650390624996,0.074009828,0.050523363,0.031400990234374995,0.032829234374999995
0.476,0.031314992,0.074008719,0.050533086,0.031400720703124996,0.03283034
0.48,0.031316533,0.074007242,0.050533523,0.031400387,0.032832117187499996
0.484,0.031317941,0.074005367,0.050529429687499995,0.031400084,0.032832785156249995
0.488,0.031318578124999996,0.074002953,0.050523195,0.031399648,0.032832184
0.492,0.031318512,0.074000234,0.050524468749999996,0.031398273,0.032833559
0.496,0.031319016,0.073998695,0.050534863281249995,0.031398072,0.032835167968749995
0.5,0.03131935,0.073997922,0.05053627,0.031398777343749996,0.032836711
0.504,0.031319853515624996,0.073996578,0.050533355,0.031398375,0.032838820312499996
0.508,0.031320355,0.073995172,0.050527453124999996,0.031397738,0.032840699
0.512,0.031321127,0.073993328,0.050527254,0.031395893,0.032841168
0.516,0.031321932,0.073993094,0.050536508,0.031393412,0.032839223
0.52,0.031323004,0.073992359,0.050538047,0.031392910156249995,0.032840363
0.524,0.031324111,0.073990008,0.050534059,0.031392307,0.032844422
0.528,0.031324613,0.073986859,0.050526749999999995,0.031390664,0.032844957
0.532,0.031324445,0.073984008,0.050526883,0.03138902,0.032844387
0.536,0.031324748046874996,0.073982469,0.050537043,0.031389289,0.032845023437499996
0.54,0.031325451,0.073981023,0.050538515624999995,0.031389893,0.032846765624999996
0.544,0.031325787109374996,0.073979109,0.050536035,0.03138949,0.032849046874999996
0.548,0.031326123,0.073977703,0.050531609374999994,0.031389523,0.032849046874999996
0.552,0.031326391,0.073976031,0.050533219,0.031389893,0.032848277343749996
0.556,0.031327195,0.073975055,0.050543613,0.031390395,0.032848477
0.56,0.031328303,0.073974688,0.050545324,0.031390998,0.032849551
0.564,0.031329174,0.07397375,0.050542207031249994,0.031390697265624996,0.03285032
0.568,0.031329843749999996,0.073971906,0.050535835937499995,0.031389154,0.032849484
0.572,0.031330348,0.07396932,0.050536808593749996,0.031387544921874996,0.032849214843749995
0.576,0.031330314,0.07396825,0.050547168,0.031386841796874995,0.032849984374999995
0.58,0.031330414,0.073968086,0.050549281249999994,0.03138674,0.032850891
0.584,0.031331588,0.073967477,0.050546699,0.031387646,0.032851262
0.588,0.031332928,0.073965805,0.050540496,0.031386975,0.032851058593749996
0.592,0.031333566,0.073963891,0.050540999999999996,0.031385164,0.032851929687499996
0.596,0.031333666,0.073963258,0.050551258,0.031384628906249996,0.032853305
0.6,0.031334504,0.073962648,0.050552332,0.031384193,0.032854645
0.604,0.031335543,0.073961344,0.050548843749999996,0.031384125,0.03285659
0.608,0.031336314,0.073959469,0.050542875,0.031382650390624996,0.032856121093749996
0.612,0.031336785,0.073957656,0.050544016,0.031380371,0.03285582
0.616,0.031337890624999996,0.073956719,0.050553804687499995,0.031380068,0.032856758
0.62,0.031339332,0.073956078,0.050554843749999995,0.031379767578124995,0.032858367
0.624,0.031340473,0.073954805,0.050552097656249996,0.031378996,0.032859777
0.628,0.031341109374999995,0.073952391,0.050546898437499994,0.031378225,0.032860582
0.632,0.031341545,0.073951289,0.050548273,0.031376816,0.032860210937499995
0.636,0.031342048828124996,0.073952055,0.050557929687499996,0.031376582031249996,0.032860781
0.64,0.031343154,0.073951219,0.050559102,0.031376615234374995,0.032862593749999995
0.644,0.031344395,0.073950008,0.050556758,0.031376682,0.032864132812499995
0.648,0.031345367,0.073948305,0.050551223,0.03137591,0.032862895
0.652,0.031346307,0.073946758,0.050553035156249995,0.031375072,0.032861117
0.656,0.031347279296874996,0.073945586,0.050562121093749995,0.031375576171874996,0.032863969
0.66,0.031347949,0.073943945,0.050561754,0.031375408203124996,0.032869734
0.664,0.031349424,0.073941227,0.050558332,0.031373732,0.032873223
0.668,0.031349859,0.073938375,0.05055327,0.031372457,0.032873758
0.672,0.031350195312499995,0.073936734,0.050554309,0.031371754,0.032873691406249995
0.676,0.031350664,0.073936234,0.050563832,0.031371318,0.03287493
0.68,0.031351537,0.073935859,0.050565374999999996,0.031370445,0.032875566
0.684,0.031351838,0.073935695,0.050562793,0.031369709,0.032876137
0.688,0.031352441,0.073934289,0.05055632,0.031368199,0.032875133
0.692,0.031352811,0.073931703,0.050556957031249995,0.031367394531249995,0.032874797
0.696,0.031353549,0.073930328,0.050566613,0.031367394531249995,0.032875469
0.7,0.03135499,0.073929758,0.050567719,0.031367764,0.032876273
0.704,0.031356768,0.073928992,0.050564168,0.03136783,0.032876574218749996
0.708,0.03135717,0.073927148,0.050557328124999995,0.031365887,0.032877008
0.712,0.031357537,0.073924227,0.050557594,0.031363707,0.032877883
0.716,0.031358242187499996,0.073922586,0.050566414062499995,0.031362936,0.032879223
0.72,0.031359182,0.073921375,0.050566512,0.031362533,0.032880664062499995
0.724,0.031360857,0.073920641,0.050563093749999996,0.031361797,0.032881199
0.728,0.031361762,0.07391843,0.050557527,0.031360388671874996,0.032880059
0.732,0.031362332031249995,0.073916789,0.050559406,0.031358678,0.032878214843749996
0.736,0.031363169921874996,0.073916219,0.050569395,0.031357906,0.032878184
0.74,0.031364545,0.073915844,0.050570402,0.031357068,0.032879656
0.744,0.031365986,0.07391518,0.050567621,0.031356934,0.032879624999999996
0.748,0.031367262,0.073913398,0.050561851562499996,0.031356095703124996,0.032879156
0.752,0.031367529,0.07391182,0.050563293,0.031353984,0.032879055
0.756,0.031367998,0.073911555,0.050572715,0.031352979,0.032879523437499995
0.76,0.031369205,0.073911391,0.050573352,0.031352777,0.032881301
0.764,0.031370814,0.073911055,0.050570066406249996,0.031352643,0.032883145
0.768,0.031372390624999996,0.073909312,0.050563363281249996,0.031351637,0.03288291
0.772,0.031373664,0.073907031,0.050564332,0.031350262,0.032882945
0.776,0.03137467,0.073905789,0.050573555,0.031350498,0.032884484
0.78,0.03137618,0.073905188,0.050574059,0.031351167968749996,0.032887906
0.784,0.031377621093749995,0.073904109,0.050570703,0.031350865,0.032888710937499996
0.788,0.031377855,0.073901867,0.050564973,0.031348619,0.032886766
0.792,0.031377789,0.073900227,0.050566210937499995,0.031346641,0.032886867
0.796,0.031378426,0.073900086,0.050575699,0.031346508,0.032888676
0.8,0.0313799,0.073899852,0.050576101562499996,0.031346541,0.032890855
0.804,0.031380939,0.073898984,0.050572684,0.031346373,0.032891996
0.808,0.031381209,0.073897305,0.050567082031249995,0.031345535,0.032891863281249996
0.812,0.031382248,0.073895563,0.05056916,0.031344463,0.032891727
0.816,0.03138359,0.073895195,0.05057902,0.031343557,0.032891559
0.82,0.031384896,0.073894789,0.050579188,0.031343355,0.032893738
0.824,0.031385835937499995,0.073892984,0.050576402,0.031343154,0.032895449
0.828,0.03138674,0.073890195,0.050570937499999996,0.031342182,0.032895215
0.832,0.031387311,0.073889195,0.050572347656249995,0.031341412,0.03289575
0.836,0.031388550781249996,0.073889023,0.050582742187499995,0.031342383,0.032897828
0.84,0.031389221,0.073888352,0.050584484374999995,0.031343958984374996,0.032901215
0.844,0.031390227,0.073887047,0.050581465,0.031344261718749995,0.032902926
0.848,0.031391634765624996,0.07388507,0.050575633,0.03134292,0.032902457
0.852,0.031392775390624995,0.073883055,0.050578113281249996,0.031341277,0.032902391
0.856,0.031394888671874996,0.073882117,0.050587570312499996,0.031341109374999995,0.032903195
0.86,0.031397201,0.073881281,0.050587301,0.031341377,0.032904469
0.864,0.031398207,0.073879875,0.050583813,0.031340539,0.032905945
0.868,0.031399213,0.073878125,0.050577813,0.031338629,0.032906043
0.872,0.031399883,0.073876719,0.050579188,0.031337521,0.032906679687499996
0.876,0.031400486,0.073876555,0.050589512,0.031338092,0.032907789
0.88,0.031401928,0.073876953,0.050590383,0.031338494,0.032909297
0.884,0.031402934,0.073876117,0.050587902,0.031338762,0.032911175781249996
0.888,0.0314029,0.073874641,0.050583309,0.031338962890624995,0.032912078
0.892,0.03140317,0.073873234,0.050585488,0.031338863,0.03291191
0.896,0.031404678,0.073872695,0.050595715,0.031338461,0.032912816406249996
0.9,0.031406354,0.073872828,0.050595816,0.031338395,0.032914226562499996
0.904,0.031407428,0.073872258,0.050591926,0.031337957031249995,0.032915164
0.908,0.031408467,0.073870281,0.050585961,0.031335645,0.032915465
0.912,0.031409137,0.073868,0.050588406249999995,0.031334471,0.032916004
0.916,0.031409338,0.07386743,0.050598632812499995,0.031334102,0.032916336
0.92,0.031410545,0.073867,0.050599,0.031333197,0.032916004
0.924,0.031411484,0.073866055,0.050595883,0.031333063,0.032916773
0.928,0.031412221,0.073864117,0.05058968,0.031332525,0.032917344
0.932,0.031412893,0.073862203,0.050590117,0.031331387,0.032916707
0.936,0.031413295,0.073861531,0.050599671874999995,0.031331051,0.032917141
0.94,0.031414031,0.073861133,0.050600476562499996,0.031330816406249996,0.032919121093749996
0.944,0.031414904,0.073860664,0.050598164,0.031330918,0.032920797
0.948,0.031415307,0.073860289,0.050592531249999996,0.031330414,0.032919457
0.952,0.031415541,0.073859789,0.050595312499999996,0.031329876953124995,0.032920527
0.956,0.031416646,0.073859523,0.050604535,0.031329273,0.032922875
0.96,0.03141943,0.073860023,0.05060373,0.031328303,0.032923914
0.964,0.031421441,0.07385875,0.050598934,0.031326492,0.032925961
0.968,0.031422012,0.07385543,0.050592027,0.031324445,0.032926664
0.972,0.031422447,0.073852781,0.050593367187499995,0.031322971,0.03292777
0.976,0.031423922,0.073850836,0.050603425781249996,0.031322769531249996,0.03292968
0.98,0.031425365234374995,0.073849531,0.050604434,0.031323037,0.032931289
0.984,0.031427275390624995,0.073848359,0.050601480468749994,0.031323541,0.032932063
0.988,0.031428281249999995,0.073846609,0.050595210937499996,0.031322367,0.032930418
0.992,0.031429220703124996,0.073844297,0.050596453124999996,0.031320892578124995,0.032929445
0.996,0.031429891,0.073843328,0.050606176,0.031320424,0.032930352
1,0.031430427734374995,0.073843156,0.050607652,0.031320523,0.032932867
1.004,0.031431064,0.073842289,0.050604867,0.031320926,0.032935313
1.008,0.031432037,0.073841281,0.050598934,0.031320557,0.032935449218749996
1.012,0.031432707,0.073839234,0.050601785156249995,0.031319853515624996,0.032936117187499996
1.016,0.031434082,0.073839469,0.050611640624999996,0.031320188,0.032937059
1.02,0.031435959,0.073840008,0.050612145,0.031320625,0.032940176
1.024,0.031437268,0.073839836,0.050609695312499994,0.031321027,0.032941816
1.028,0.031438473,0.073838227,0.050603863281249994,0.03132049,0.032942421874999996
1.032,0.031439277343749995,0.073835648,0.050605371,0.031320121,0.032943664062499996
1.036,0.031440249999999996,0.073834578,0.050615394531249996,0.031321061,0.032943965
1.04,0.031441793,0.073833805,0.050616469,0.031322031,0.032945875
1.044,0.031443738,0.073832734,0.050613586,0.031322434,0.032947285
1.048,0.031444844,0.073831461,0.050607047,0.031321361,0.032946813
1.052,0.031445447265624996,0.073829648,0.050608793,0.031320457,0.032946242187499995
1.056,0.031446721,0.073828773,0.050619285,0.031319484,0.032947016
1.06,0.031448431640624996,0.073828742,0.050619891,0.03131925,0.032948055
1.064,0.031449236,0.073828203,0.050617406,0.031319418,0.032949797
1.068,0.031449705,0.0738275,0.050612511718749996,0.03131935,0.032950805
1.072,0.031450543,0.073827063,0.050614828,0.031318646,0.032951543
1.076,0.031451951,0.073826898,0.050625285,0.031318847656249996,0.032952816
1.08,0.031453527343749996,0.073826492,0.050626461,0.031318814453124996,0.032954289062499996
1.084,0.031454634765624996,0.07382532,0.050623039,0.031317875,0.032956
1.088,0.031455137,0.073822875,0.050617508,0.031315461,0.03295627
1.092,0.031455137,0.073820828,0.050620527,0.031314053,0.032956605
1.096,0.031456479,0.073819727,0.050630449,0.031313683593749995,0.032957141
1.1,0.031457316,0.073817914,0.050630917968749994,0.031312879,0.032957542968749996
1.104,0.031458154,0.073816,0.050628906,0.031312711,0.032958949
1.108,0.03145849,0.07381332,0.050623207,0.031311303,0.032959117
1.112,0.031459193,0.073812078,0.050625051,0.031309458984374997,0.032957945
1.116,0.031461406,0.073810906,0.050632160156249995,0.031307783,0.03295627
1.12,0.031463753906249996,0.07380832,0.050629378906249994,0.031305738281249995,0.032954457031249995
1.124,0.031465162,0.073805203,0.050624281,0.031303391,0.032953652
1.128,0.031465598,0.073802219,0.050617675781249996,0.031300943,0.032952816
1.132,0.031466033,0.073798664,0.050618781249999995,0.031299166,0.032952378906249996
1.136,0.031466871,0.07379582,0.050627633,0.031298664,0.032952984
1.14,0.031467375,0.073793234,0.050628406,0.031297624999999996,0.032954156
1.144,0.031467508,0.073790859,0.050625992187499996,0.031296217,0.032954223
1.148,0.031467207,0.073787836,0.050619585937499996,0.031293902,0.03295382
1.152,0.031467475,0.073784852,0.050620929687499996,0.031291857,0.032953519531249996
1.156,0.03146885,0.073782977,0.050630586,0.031290785,0.032954426
1.16,0.031470225,0.073781672,0.050631086,0.031290416015624996,0.032956570312499996
1.164,0.031470895,0.073779391,0.0506275,0.031289779,0.032957339843749996
1.168,0.031471633,0.073776609,0.050620828124999996,0.031288504,0.032957777
1.172,0.031472068,0.073773055,0.050622468749999996,0.031287096,0.032959051
1.176,0.031472806640624996,0.073770906,0.05063273,0.031286963,0.032960527
1.18,0.031474248,0.073769867,0.050633871,0.031287096,0.032962641
1.184,0.031475656,0.073768156,0.050631656,0.031286861,0.032964113
1.188,0.031476461,0.073765477,0.050625453,0.031284682,0.032964785156249996
1.192,0.031476963,0.073762727,0.050627164,0.031282234374999995,0.032965488
1.196,0.0314775,0.073761352,0.050638093749999995,0.031281631,0.03296834
1.2,0.031477635,0.073760008,0.050640242,0.031281865,0.032971422
1.204,0.031477635,0.073757094,0.050638063,0.031281195312499996,0.032972965
1.208,0.031478305,0.073754477,0.050632359,0.03127952,0.032973301
1.212,0.031479578,0.073752164,0.050634207031249996,0.031277508,0.032972933593749996
1.216,0.031481422,0.073750961,0.050642891,0.031275295,0.032972664
1.22,0.031482461,0.073749078,0.050642453,0.031273785,0.032974375
1.224,0.0314834,0.073746133,0.050639437499999995,0.031273383,0.032975949
1.228,0.031484205,0.073742344,0.050632527,0.031272143,0.032976453
1.232,0.031484541,0.073738719,0.050633199,0.031270902,0.032976820312499995
1.236,0.031485379,0.073736641,0.050642820312499996,0.0312704,0.03297823
1.24,0.031486184,0.073735633,0.050643257812499995,0.031269326,0.032978164062499996
1.244,0.03148682,0.073734359,0.050640273,0.031268187499999996,0.032978633
1.248,0.031487156249999995,0.073732047,0.050633871,0.031265672,0.032977055
1.252,0.031486955,0.073728859,0.050634874999999996,0.031263124999999996,0.03297575
1.256,0.031487961,0.073726516,0.050644098,0.031261011718749995,0.032976855468749997
1.26,0.031489268,0.073724641,0.050644934,0.031258933593749996,0.032978633
1.264,0.031490105,0.073723062,0.050641313,0.031256988,0.032979738
1.268,0.031490576,0.073719773,0.050634742,0.031254643,0.032979703124999996
1.272,0.031491111,0.073715586,0.050636785156249996,0.031252563,0.032978195
1.276,0.031492017578124996,0.073712,0.050645707,0.031250886718749996,0.032977961
1.28,0.031493492,0.073709648,0.050645167968749995,0.031250049,0.032979234
1.284,0.031494264,0.073707805,0.050641582,0.031249511718749998,0.032981078
1.288,0.031495035,0.073704727,0.050634574,0.031248338,0.032980711
1.292,0.031495438,0.073702375,0.050636383,0.031246494140624997,0.032980711
1.296,0.031495605,0.07370157,0.050646645,0.031244583984374998,0.032982352
1.3,0.031496107421874996,0.073700703,0.050646676,0.031243678,0.032983426
1.304,0.031495807,0.073699828,0.050643762,0.031243209,0.032984902
1.308,0.031495438,0.073697547,0.050638464843749995,0.031241566406249997,0.03298527
1.312,0.031495471,0.07369507,0.050639301,0.031239723,0.0329845
1.316,0.031495906,0.073693391,0.050648824,0.031238213,0.032985070312499996
1.32,0.031496777,0.073691648,0.050649695,0.031237207,0.032985839843749996
1.324,0.03149765,0.073689539,0.050646645,0.031237039,0.032986746
1.328,0.031497516,0.073686414,0.050640976562499995,0.031236402343749997,0.03298973
1.332,0.03149765,0.073684,0.050642922,0.031235798828124998,0.032991809
1.336,0.031497984374999996,0.073682727,0.050652949,0.031235531,0.032993617
1.34,0.031498990234374996,0.073682227,0.050654957031249996,0.031235297,0.032996301
1.344,0.031500298828124995,0.073681922,0.050652242187499995,0.031235195,0.032996902343749995
1.348,0.031501304687499995,0.073680148,0.050645637,0.031233252,0.032995293
1.352,0.031501338,0.073677328,0.05064775,0.031230904296874997,0.032994523
1.356,0.031501371,0.073676094,0.050657675781249994,0.031229027,0.03299516
1.36,0.031501674,0.073675586,0.050659016,0.031227551,0.032997039
1.364,0.031502242,0.07367418,0.050656805,0.031226142578124998,0.032998582
1.368,0.031502310546874995,0.073671664,0.050651977,0.03122507,0.032999621
1.372,0.031502209,0.073670156,0.050654793,0.031223695312499997,0.032998914062499995
1.376,0.03150268,0.073670086,0.05066391,0.031222656249999998,0.032999555
1.38,0.031503046874999996,0.073670594,0.050663777,0.031222557,0.033002703
1.384,0.031503518,0.07367093,0.050661664,0.031222824218749997,0.033004816
1.388,0.031504824,0.07366925,0.050655124999999995,0.031220779296874997,0.033002367
1.392,0.031506031,0.073665461,0.05065432,0.031217023437499998,0.032998914062499995
1.396,0.031506467,0.073662578,0.050663171874999996,0.031215246,0.03299875
1.4,0.031507541,0.073661305,0.050663273437499996,0.031213671874999998,0.03299952
1.404,0.031508178,0.073660602,0.050659316406249995,0.031211625,0.033000425781249995
1.408,0.031508412,0.073659023,0.050651406249999996,0.031208607,0.033000492
1.412,0.031508613,0.073657352,0.050653184,0.031207199,0.032999754
1.416,0.031508848,0.073656445,0.050663609374999995,0.031207436,0.033000425781249995
1.42,0.031510189,0.073655773,0.050664012,0.031206832,0.033002437499999995
1.424,0.031511129,0.073653492,0.050661027,0.031205424,0.033004852
1.428,0.031511363281249996,0.073650578,0.05065516,0.031203277,0.033005586
1.432,0.031512369140624996,0.073647797,0.050657473,0.031200764,0.033005285
1.436,0.03151334,0.073645711,0.050666156,0.031198584,0.033005555
1.44,0.031514144531249996,0.073643539,0.050666125,0.031198014,0.033007566
1.444,0.031514582,0.073641656,0.050661965,0.031197477,0.033009645
1.448,0.031515051,0.073640016,0.050655965,0.031195734,0.03300857
1.452,0.031515318359374996,0.073637703,0.050658246,0.031193621,0.033007230468749996
1.456,0.031515654,0.073636063,0.050667934,0.031193789062499998,0.033007531
1.46,0.031516258,0.073634984,0.050667598,0.031195432,0.03301075
1.464,0.031517096,0.073634211,0.050664414062499996,0.031196236328124998,0.033012762
1.468,0.031517330078124996,0.073633109,0.050659249999999996,0.031196269531249998,0.033012258
1.472,0.031517498,0.073631703,0.050661563,0.031195833984374997,0.033011121
1.476,0.031518168,0.073630758,0.050670883,0.031195296874999997,0.033011789
1.48,0.031519374999999995,0.073629625,0.05067048,0.031193654296874998,0.033012695
1.484,0.03152102,0.073628484,0.050666492187499995,0.031191945,0.033013098
1.488,0.031522359374999996,0.073627008,0.050659484,0.031190102,0.033012863
1.492,0.031523197,0.073624992,0.050661328124999995,0.031187855468749998,0.033012094
1.496,0.031523869,0.073624727,0.050671086,0.031187352,0.033012461
1.5,0.031525041,0.073624188,0.050672492,0.031187084,0.033014672
1.504,0.031525645,0.073622813,0.05067075,0.031186447,0.033016887
1.508,0.031525713,0.07362057,0.050666023,0.031185475,0.033018563
1.512,0.031526283,0.07361893,0.050669141,0.031185306640624997,0.033018695
1.516,0.031527589843749995,0.073619359,0.050679769531249995,0.031185475,0.033019602
1.52,0.0315294,0.073619734,0.050680875,0.031185138671874998,0.033021378906249996
1.524,0.031530809,0.073619297,0.050678628906249995,0.031185003906249998,0.033022316
1.528,0.031531478515624996,0.073617414,0.050673398437499996,0.031184367,0.033022688
1.532,0.031532418,0.073614937,0.050676347656249995,0.031184099609374998,0.033023926
1.536,0.031533759765624995,0.073613094,0.05068557,0.031184,0.033026676
1.54,0.03153473,0.073612188,0.050686074218749995,0.031184301,0.033029593749999996
1.544,0.031535669921874995,0.073610977,0.050683121,0.031183730468749997,0.033032074
1.548,0.031536609374999997,0.073608563,0.050677086,0.031181887,0.033031874999999995
1.552,0.031537447,0.073606453,0.050679499999999995,0.031180881,0.033031203
1.556,0.031538186,0.073606289,0.050689359,0.031179875,0.033032109
1.56,0.031538754,0.073606148,0.050689492,0.03118001,0.033034355
1.564,0.031540297,0.073604477,0.050687313,0.031180177734374998,0.033035395
1.568,0.031541738281249995,0.073603203,0.050682484374999996,0.031179103515624997,0.033033785156249995
1.572,0.031542543,0.073602367,0.050685168,0.031177929687499998,0.033032847656249996
1.576,0.031542912,0.073601727,0.050694387,0.03117783,0.033033648
1.58,0.031543516,0.073601086,0.050694687499999995,0.031177628906249998,0.033036734
1.584,0.03154432,0.073601023,0.050692543,0.031177595703124998,0.033039082
1.588,0.031545191,0.073599242,0.050686477,0.031176355,0.033039047
1.592,0.031545828,0.073597133,0.050688184,0.031175583984374998,0.033038949218749995
1.596,0.031546734374999996,0.073596164,0.050697773437499996,0.031175917968749998,0.033040457
1.6,0.031547740234374996,0.07359593,0.050697906,0.031176019531249998,0.033042836
1.604,0.03154868,0.07359475,0.050695058593749995,0.031175482421874998,0.033045453
1.608,0.031549518,0.073592609,0.050688723,0.031174074,0.033044746
1.612,0.031550121,0.073590625,0.0506905,0.031172867187499998,0.03304334
1.616,0.031550958984374995,0.073590156,0.050699551,0.031172398,0.03304418
1.62,0.031552467,0.073589859,0.050699316,0.03117223,0.033046191
1.624,0.031553205,0.073588617,0.050695965,0.031171896,0.033048168
1.628,0.031553373,0.073585805,0.050690832,0.031171695312499997,0.033048133
1.632,0.031553976562499995,0.07358268,0.050693046874999995,0.031171494,0.033048203
1.636,0.031555418,0.073580906,0.050702332,0.031171560546874998,0.033049441
1.64,0.031556892578124995,0.0735805,0.050702871,0.031171091796874998,0.033051488
1.644,0.031557631,0.073580672,0.050699988,0.031170689453124997,0.033053566
1.648,0.031557865234374996,0.073579633,0.050694789062499995,0.031170387,0.033054504
1.652,0.031557865234374996,0.073577719,0.050698141,0.031170723,0.033055543
1.656,0.031558771,0.073578055,0.050708469,0.031170924,0.033057254
1.66,0.031560346,0.073577891,0.050710043,0.031170723,0.033059266
1.664,0.031561185546874995,0.073577758,0.050707766,0.031171091796874998,0.033060773437499996
1.668,0.031561252,0.073577219,0.050701898,0.031169683593749997,0.033060508
1.672,0.031561921874999996,0.073576148,0.050703441,0.031168477,0.033059535
1.676,0.031563162,0.073576148,0.050711688,0.031168039,0.033060406
1.68,0.031564404,0.073576383,0.050711921874999996,0.031167906,0.033062887
1.684,0.031565711,0.073575844,0.050708769531249996,0.031167906,0.033064129
1.688,0.031566852,0.073574734,0.050703941406249994,0.031167201,0.033063793
1.692,0.031567253906249995,0.073573125,0.050708469,0.031166465,0.033064461
1.696,0.031567555,0.073572492,0.050718124999999996,0.031166062499999998,0.033066207031249996
1.7,0.031569064,0.073572859,0.050718695,0.031165357421874998,0.033068352
1.704,0.031570572,0.073572359,0.050715375,0.031164318,0.033070465
1.708,0.031570572,0.073570578,0.050708301,0.031163044921874997,0.033070965
1.712,0.031570605,0.073568906,0.050710984,0.031161736,0.033071269531249996
1.716,0.031571512,0.073568469,0.050720336,0.031161502,0.033072375
1.72,0.031573422,0.073568133,0.050719902,0.031161603515624997,0.033073582
1.724,0.031574596,0.073566859,0.050716113281249996,0.031160631,0.033073852
1.728,0.03157473,0.073565352,0.050709910156249996,0.031158082,0.033073684
1.732,0.031574898,0.073563977,0.050712625,0.031155668,0.03307375
1.736,0.031575902,0.073563539,0.050721848,0.03115577,0.033074453
1.74,0.031577345703124995,0.073563609,0.050721477,0.031156607,0.033077137
1.744,0.031578854,0.07356307,0.050719031,0.031153758,0.033079011718749995
1.748,0.031579793,0.073561523,0.050713332031249996,0.031149701,0.033079214843749996
1.752,0.031580932,0.07355982,0.050716516,0.031147890624999997,0.033079348
1.756,0.031582374999999996,0.073559383,0.050726676,0.031147587890624998,0.033079011718749995
1.76,0.031582943,0.07355868,0.050726676,0.031147287109374998,0.033083707
1.764,0.031583648,0.073557031,0.050722316406249995,0.031146246,0.033087695
1.768,0.031583883,0.073555422,0.050715676,0.031145039062499998,0.033088266
1.772,0.031583246093749996,0.073553719,0.050718527,0.031144471,0.033089508
1.776,0.031584051,0.073553313,0.050728617,0.031145408,0.033091688
1.78,0.031586330078124995,0.073552977,0.050728484,0.031146414,0.033094035
1.784,0.031587135,0.073551703,0.050726875,0.031146816,0.033095542968749996
1.788,0.031587437499999996,0.073550227,0.050721512,0.03114524,0.033094805
1.792,0.031588275,0.07354882,0.050724226562499995,0.031144102,0.033094035
1.796,0.031589852,0.073548648,0.050732273437499996,0.031144234,0.033093531249999995
1.8,0.03159193,0.073549023,0.050730965,0.03114333,0.033094066
1.804,0.031592701,0.073548047,0.050727578,0.031142223,0.033094805
1.808,0.031593104,0.073545469,0.050721007812499996,0.031140313,0.033094066
1.812,0.031593505859374996,0.073542719,0.050722887,0.031139475,0.03309373
1.816,0.031594779,0.073540805,0.050732074,0.031139408,0.033095609
1.82,0.031596523437499996,0.073539234,0.050732742,0.031139139,0.033097453124999995
1.824,0.031597427734374996,0.073537555,0.050729961,0.031138838,0.033098258
1.828,0.031598133,0.073534906,0.050722617,0.031137463,0.033097723
1.832,0.031598635,0.073532055,0.050725097656249996,0.031135652343749997,0.033097688
1.836,0.031599238,0.073530883,0.050735125,0.031135283,0.033098762
1.84,0.031600379,0.073530242,0.050734988,0.031135115,0.033100102
1.844,0.031600881,0.073529039,0.050732574,0.03113468,0.033101207031249996
1.848,0.031601418,0.073526859,0.050726941,0.031133037109374997,0.033100539062499997
1.852,0.031602189,0.073525648,0.050729390624999995,0.031131092,0.033100605468749995
1.856,0.031603094,0.07352632,0.050739047,0.031130589843749997,0.033102215
1.86,0.031604201,0.073527125,0.050740554687499995,0.031129851562499998,0.033104023
1.864,0.031604636718749995,0.073526695,0.050738476562499996,0.031128678,0.033103723
1.868,0.031605375,0.073524609,0.050732977,0.031127437499999997,0.033104023
1.872,0.031606078,0.073523336,0.050735293,0.031125459,0.033104863
1.876,0.031606546874999995,0.073523039,0.050744813,0.031125293,0.033107277
1.88,0.031607586,0.073522531,0.05074525,0.031125996093749997,0.033110059
1.884,0.031609096,0.073521961,0.05074193,0.031124822265624998,0.033110629
1.888,0.031609834,0.073520453,0.050735457,0.031122678,0.033109992
1.892,0.031610369,0.073518914,0.050737941,0.031120363281249997,0.033109488
1.896,0.031611006,0.073518977,0.050747195,0.031120531,0.033111301
1.9,0.031612816,0.073519484,0.050747898,0.031120633,0.033113848
1.904,0.031614059,0.073517805,0.05074575,0.031119961,0.033115023
1.908,0.031614293,0.073514688,0.05073948,0.031117514,0.033114117
1.912,0.031614662,0.073512547,0.050741257812499996,0.031115837890624998,0.033113949
1.916,0.03161607,0.073512781,0.050749773,0.031115736328124997,0.033116027
1.92,0.031617611328124996,0.073513516,0.050749941,0.031115435546874997,0.033118574218749995
1.924,0.031619322,0.07351368,0.050746555,0.031114429687499997,0.03311891
1.928,0.031619925781249995,0.073511836,0.050740789,0.031112283203124997,0.033118375
1.932,0.031621031,0.073510031,0.050743473,0.031110673828124998,0.033117438
1.936,0.031622004,0.073509563,0.050750511718749995,0.031109634765624998,0.033117636718749996
1.94,0.031622775390624996,0.07350825,0.050749238,0.031108226562499997,0.033118375
1.944,0.031623781249999997,0.073507211,0.050745887,0.031106852,0.033118507812499996
1.948,0.031624685546874996,0.073504125,0.050739683593749994,0.031104371,0.033117367187499996
1.952,0.031625189,0.073500875,0.050741828,0.031102258,0.033117535156249996
1.956,0.031626061,0.073498328,0.050749539062499995,0.031101354,0.033118273
1.96,0.031626564,0.073495445,0.050748133,0.031100648,0.033120016
1.964,0.031627268,0.073492797,0.050743773,0.031099912,0.033121223
1.968,0.031627402,0.073489273,0.050737605468749995,0.031098303,0.033120656
1.972,0.03162757,0.073484781,0.050740051,0.031097029,0.033120152
1.976,0.031628709,0.073481969,0.050746391,0.031096156,0.033120016
1.98,0.031629447,0.073479516,0.050745281249999996,0.031095318,0.033120922
1.984,0.03163015,0.073476469,0.050741965,0.031093775390624998,0.033121324
1.988,0.031630385,0.073472508,0.05073643,0.031090691,0.033119781
1.992,0.031630219,0.073468758,0.050738508,0.031088144531249997,0.033118375
1.996,0.031631258,0.073466406,0.050745988281249994,0.031086602,0.03311891
2,0.031633035156249996,0.073464398,0.050744914,0.031085461,0.033120621
2.004,0.031633604,0.073461445,0.050740855,0.031084421874999997,0.033121762
2.008,0.031633672,0.073456984,0.050734219,0.031082511718749997,0.033121391
2.012,0.031634207,0.073452227,0.050736766,0.031080701,0.033122429687499996
2.016,0.03163518,0.073449141,0.050744781249999996,0.031079794921874997,0.033123973
2.02,0.031634846,0.073447297,0.050743707031249995,0.031079561,0.033125984
2.024,0.031634978515624995,0.073445086,0.050741059,0.031079359374999997,0.033128836
2.028,0.031635582,0.073442641,0.050735996,0.031078053,0.033129605
2.032,0.031636287,0.073440023,0.050739281,0.031077851562499998,0.033130848
2.036,0.031638801,0.073438148,0.050746391,0.031077281249999998,0.033132289
2.04,0.031641215,0.073435328,0.050742902,0.031075504,0.033133461
2.044,0.031641785,0.073432375,0.050738141,0.031073324,0.03313373
2.048,0.03164259,0.073428992,0.050732105,0.031071078,0.033131281
2.052,0.031643662,0.073426445,0.050734249999999995,0.031069938,0.033130848
2.056,0.031645171874999996,0.073423594,0.050741796874999995,0.031069469,0.033132457
2.06,0.031647082031249996,0.073420039,0.050740992,0.031069234374999997,0.033134199
2.064,0.031648087890624996,0.073415813,0.050738039,0.03106843,0.033134434
2.068,0.031648424,0.07341082,0.050732003906249996,0.031066753906249998,0.033132391
2.072,0.031648658,0.073405789,0.050735727,0.03106625,0.033132758
2.076,0.031649463,0.073402273,0.050744645,0.031066652343749997,0.033133695312499996
2.08,0.031650301,0.073399586,0.050744613281249996,0.031066988,0.03313457
2.084,0.03165134,0.073396742,0.050741895,0.031066484374999998,0.033134902
2.088,0.031652212890624996,0.073392984,0.050736063,0.031064406,0.033134469
2.092,0.031653621,0.073387852,0.050738273437499995,0.031063199218749997,0.033134602
2.096,0.031654592,0.073383398,0.050747027,0.031062896484374998,0.033136179687499996
2.1,0.031655029,0.073379305,0.050747527343749994,0.031062293,0.033138992
2.104,0.031655465,0.07337407,0.050746320312499996,0.031062025390624998,0.033140871093749996
2.108,0.031656201171874995,0.073367672,0.050742398437499996,0.031060852,0.03314084
2.112,0.031657846,0.073361805,0.050745718749999995,0.031059377,0.033139664
2.116,0.031658449218749996,0.073356875,0.05075373,0.031058437499999998,0.033139730468749996
2.12,0.031659119,0.073351945,0.050752289,0.0310575,0.033140504
2.124,0.031659723,0.073347617,0.050748266,0.031056158,0.033140336
2.128,0.031659891,0.073342656,0.050743035,0.031053141,0.033138793
2.132,0.031660258,0.073337898,0.050745652343749996,0.031051264,0.033139363
2.136,0.031661263671874995,0.073334742,0.050753363,0.031050189453124998,0.033141375
2.14,0.031662505859374995,0.073332195,0.050752289,0.031049050781249997,0.033141711
2.144,0.031663846,0.073329281,0.050748535156249996,0.031047207,0.033142179687499995
2.148,0.031663443,0.073324922,0.050742296874999995,0.031044893,0.033141477
2.152,0.031663176,0.073320664,0.050744879,0.031043249999999998,0.033142816
2.156,0.031663343749999996,0.073317945,0.050752624999999996,0.031042311,0.033145832031249996
2.16,0.031664281249999995,0.073315531,0.050752792968749995,0.031041673828124998,0.033147746
2.164,0.031665086,0.073311984,0.050750176,0.031040333984374998,0.033148281
2.168,0.031664818,0.073306922,0.050743473,0.031038488,0.033148582
2.172,0.031665523437499996,0.073302859,0.050746086,0.031038085937499998,0.033149855468749996
2.176,0.031667367187499997,0.073301086,0.05075373,0.031038085937499998,0.033150359
2.18,0.031668641,0.073299375,0.05075266,0.031037551,0.033151063
2.184,0.031669379,0.073296258,0.050748734,0.031035941,0.03315123
2.188,0.031670049,0.073292906,0.050742835937499994,0.031032521,0.033151535
2.192,0.031670686,0.073290891,0.050746523437499996,0.031030207,0.033152136718749996
2.196,0.031671959,0.073290117,0.050755105,0.031029771,0.033154917968749996
2.2,0.031673066,0.073289148,0.050756078,0.031030342,0.033158004
2.204,0.031673838,0.073287336,0.050754703124999995,0.031030945,0.033159883
2.208,0.031674408,0.073284352,0.050748969,0.031029504,0.033159145
2.212,0.031675345703124996,0.073282242,0.050752421874999995,0.031028598,0.033158707
2.216,0.031676754,0.073281437,0.050762383,0.031028833984374997,0.033159949
2.22,0.031678598,0.073281102,0.050763117,0.031028396484374998,0.033160988
2.224,0.031679939,0.073279758,0.050761242,0.03102833,0.033161859
2.228,0.031679771,0.073276375,0.050756313,0.031028063,0.033164441
2.232,0.031680275,0.073273594,0.050758761718749996,0.031027960937499998,0.033167559
2.236,0.031680811,0.073272789,0.050767277,0.03102833,0.033170410156249996
2.24,0.031681281,0.073271047,0.050767512,0.031028598,0.033172152
2.244,0.031681783,0.073268023,0.050763992187499996,0.031027626953124998,0.033171883
2.248,0.031681885,0.073264508,0.050757585937499995,0.031025111328124997,0.033171148
2.252,0.031682891,0.073261891,0.050760773,0.031023301,0.033170410156249996
2.256,0.031684197,0.073260984,0.050769859,0.031023167968749998,0.033172121
2.26,0.031685740234374996,0.073259813,0.05077016,0.031023904296874998,0.033175371093749996
2.264,0.031686578124999996,0.073257531,0.050767008,0.031023937499999998,0.033176813
2.268,0.031687248,0.073253742,0.050761777343749995,0.031022060546874997,0.033176949
2.272,0.031688121,0.073249984,0.050764660156249995,0.03102025,0.033176344
2.276,0.031689059,0.073247578,0.050773379,0.031019445312499998,0.033177719
2.28,0.031689662109374996,0.073244789,0.050773715,0.031017635,0.033180066
2.284,0.031690535,0.07324268,0.050770563,0.031015523437499998,0.033180199
2.288,0.03169107,0.073239359,0.050764929687499995,0.031013209,0.033179195
2.292,0.031691574,0.073235406,0.050768148,0.031011398437499997,0.033179863
2.296,0.031692781249999996,0.073232453,0.050775960937499996,0.031010023,0.033180836
2.3,0.031693752,0.073229969,0.050775422,0.031008582,0.033182246
2.304,0.031694322,0.073226992,0.05077207,0.031006771484374997,0.033182246
2.308,0.03169392,0.073222492,0.050765129,0.031004191,0.03318191
2.312,0.031693887,0.073218141,0.050767578,0.03100218,0.033182379
2.316,0.031694859374999995,0.073214445,0.050775960937499996,0.031000168,0.033183719
2.32,0.031695965,0.073211531,0.050775691,0.030998222656249998,0.033186301
2.324,0.03169677,0.073208109,0.05077207,0.030997385,0.033186871
2.328,0.031697508,0.073203148,0.050765632812499996,0.030994701,0.033185328124999997
2.332,0.031697609,0.073198961,0.050769086,0.030992455078124998,0.033185129
2.336,0.031698414,0.073196945,0.050778238,0.030992052734374997,0.033186301
2.34,0.031699855468749996,0.073195336,0.050777972656249996,0.030990813,0.033187945
2.344,0.031701096,0.07319393,0.050774617187499996,0.030989572265624998,0.033189957
2.348,0.031701834,0.073191687,0.05076882,0.030987059,0.033189285
2.352,0.031701666,0.073188031,0.050771801,0.030984711,0.033189890624999996
2.356,0.031701967,0.073184711,0.050779949218749995,0.030984074218749998,0.033192773437499996
2.36,0.031702771484374996,0.073181594,0.050779613,0.030983939453124998,0.033195355
2.364,0.031703711,0.073178406,0.050776496,0.030983804687499998,0.033195656
2.368,0.031704314,0.07317425,0.050770359,0.030981795,0.033194414
2.372,0.031705186,0.073171195,0.050773847656249996,0.030980050781249997,0.033194281
2.376,0.031705957031249996,0.073169555,0.050783438,0.030980050781249997,0.03319609
2.38,0.031706158,0.073167211,0.050783738,0.030979111,0.033198742
2.384,0.031706996,0.07316382,0.050780621,0.030977033203124997,0.03319941
2.388,0.031707164,0.073160734,0.050774988281249996,0.03097492,0.033198605468749996
2.392,0.031707197,0.073157453,0.050779113281249996,0.030974417968749998,0.033200148
2.396,0.031708371,0.073155305,0.050788062499999995,0.030974586,0.033202461
2.4,0.031710684,0.073152555,0.050787258,0.030974082,0.033203098
2.404,0.031712193,0.073150313,0.050783637,0.030972874999999997,0.033201691
2.408,0.031712227,0.073146727,0.050777835937499995,0.030970496093749997,0.033201488
2.412,0.031712328,0.073143703,0.050781894531249996,0.030968283,0.033202195
2.416,0.031712797,0.073142195,0.050791281,0.03096798,0.033204609
2.42,0.031714037109374996,0.073140922,0.050792387,0.030967746093749998,0.03320652
2.424,0.031715379,0.07313868,0.050790512,0.030967242187499997,0.033207258
2.428,0.031715613,0.073134852,0.050785348,0.030964896484374997,0.033206383
2.432,0.031715545,0.073132406,0.050788902,0.030963119,0.033206688
2.436,0.031715781,0.073131539,0.050797988,0.030962314453124997,0.033208465
2.44,0.031716385,0.073130125,0.050797953124999996,0.030961342,0.033210441
2.444,0.031717457,0.073128555,0.050793594,0.030960101562499998,0.033210375
2.448,0.031717893,0.073125867,0.050786387,0.030958023,0.033209906
2.452,0.031717826,0.073123156,0.050790074218749995,0.030957186,0.033210742187499996
2.456,0.031718396,0.073121242,0.050800805,0.030956748,0.033212253906249996
2.46,0.031720139,0.073119063,0.050799867,0.030954871,0.033211684
2.464,0.031720574,0.073116148,0.050794703,0.030952021484374998,0.033211246
2.468,0.031720508,0.073113266,0.050788633,0.030949607421874997,0.033210074218749996
2.472,0.031721547,0.073111117,0.05079259,0.030947160156249997,0.033209504
2.476,0.031723189,0.073109438,0.050800973,0.030945583984374997,0.033209906
2.48,0.031724027343749996,0.073108,0.050800434,0.030945013671874997,0.033211816
2.484,0.031723994140624996,0.073106492,0.050797484,0.030944076171874998,0.03321366
2.488,0.031723861,0.073104344,0.050791582,0.03094223,0.033214262
2.492,0.031723793,0.073102633,0.050795574,0.030941426,0.03321557
2.496,0.031723861,0.073101391,0.050804625,0.030942064453124998,0.03321859
2.5,0.03172443,0.073100391,0.050804691,0.030941662109374997,0.033220602
2.504,0.031725269531249996,0.073098375,0.050802144531249996,0.030940488281249998,0.033221203
2.508,0.031725705,0.073095523,0.050796109374999995,0.030938476562499997,0.033221102
2.512,0.031726643,0.073094422,0.050799363281249996,0.030936867187499998,0.033220801
2.516,0.031728723,0.073094687,0.050808449218749996,0.030936162,0.033222781
2.52,0.031730801,0.073093484,0.050807141,0.03093509,0.033224121093749996
2.524,0.031732545,0.073090633,0.050803249999999994,0.03093318,0.033225461
2.528,0.031733349609374996,0.073086609,0.05079668,0.030930027,0.033224152
2.532,0.031734154,0.073082555,0.050799160156249995,0.030928016,0.033223617
2.536,0.031734791,0.073080977,0.050807813,0.030928117,0.033227039
2.54,0.031736166,0.073079766,0.050807945,0.030928384765624997,0.033229855
2.544,0.031737373046874996,0.073077555,0.050805164,0.030928519531249997,0.033230355
2.548,0.031737875,0.073074742,0.050798289062499995,0.030927043,0.033228547
2.552,0.031738211,0.073072625,0.050801711,0.030925232421874997,0.033226805
2.556,0.031739115,0.073071555,0.050810191406249997,0.030924496,0.033227171874999996
2.56,0.031740625,0.073069773,0.050809688,0.030923857,0.033229551
2.564,0.031741965,0.073067398,0.050805898,0.030922818,0.033230492187499995
2.568,0.031742300781249996,0.073064344,0.050799964843749996,0.03092007,0.033229887
2.572,0.031743072,0.073061695,0.050803621,0.030918593749999997,0.033230258
2.576,0.031744246,0.073058813,0.050811969,0.030918259765624997,0.033231531
2.58,0.031746222656249996,0.073055961,0.050810727,0.030917488,0.03323227
2.584,0.031747129,0.073052547,0.050805898,0.030916047,0.03323257
2.588,0.031747162,0.07304782,0.050798895,0.030914203124999998,0.033232102
2.592,0.03174733,0.073044062,0.050803152,0.030913264,0.033232168
2.596,0.031748402343749996,0.073042117,0.050812371093749996,0.030914002,0.033233945
2.6,0.031749107,0.073039539,0.050811836,0.030914605,0.033236125
2.604,0.031749744,0.073037523,0.050809117187499996,0.030914671874999997,0.033236391
2.608,0.031749509765624996,0.073034172,0.050803789,0.030913095703124997,0.033236527343749996
2.612,0.031750246,0.073031156,0.050808550781249996,0.030912224609374997,0.033237801
2.616,0.031751086,0.073029344,0.050817499999999995,0.030912056640624998,0.033240215
2.62,0.031753029,0.073027766,0.050816562499999995,0.030912258,0.033241320312499996
2.624,0.031755309,0.073025453,0.050811667968749995,0.030911688,0.033240617
2.628,0.031756215,0.07302257,0.05080493,0.030909709,0.033240684
2.632,0.03175665,0.073019891,0.050808383,0.030907934,0.033241254
2.636,0.031757791,0.073018477,0.050816996,0.030907396,0.033243433593749996
2.64,0.031759098,0.0730165,0.050816094,0.030906961,0.033245410156249995
2.644,0.031760172,0.073013688,0.050811969,0.030906123046874998,0.033246082
2.648,0.031760373,0.073009766,0.05080543,0.030903674,0.033245746
2.652,0.031760640624999996,0.073006844,0.050809188,0.030902031,0.033245211
2.656,0.031761544921874996,0.073005773,0.050817601562499995,0.030901662,0.033245711
2.66,0.031762418,0.073004164,0.050817164062499996,0.030901227,0.033248461
2.664,0.031763592,0.073001211,0.050814148,0.030901025,0.033252051
2.668,0.031765367,0.072997961,0.050807711,0.030899248046874998,0.033250773
2.672,0.031765469,0.072994875,0.050811734,0.030897641,0.033250105
2.676,0.031766574218749996,0.072993,0.050819848,0.030897371093749997,0.033250574218749995
2.68,0.031767447,0.072991594,0.050819277,0.030897037109374997,0.033253289
2.684,0.031767346,0.07298968,0.050815421874999996,0.030896466796874997,0.033255636718749995
2.688,0.031767447,0.072987062,0.050809285156249995,0.03089526,0.033254797
2.692,0.031768084,0.072984313,0.050813777,0.030894019531249997,0.033253691
2.696,0.031768217,0.072982805,0.050822933593749994,0.030893818,0.033255102
2.7,0.031768753906249995,0.072982,0.050822965,0.030893416015624998,0.033257848
2.704,0.031769391,0.072980391,0.050819445312499996,0.030891939,0.033257582031249996
2.708,0.031769525,0.072977445,0.05081398,0.03089023,0.033256809
2.712,0.031769357,0.072974422,0.050817301,0.030889594,0.033258417968749995
2.716,0.031769559,0.072972445,0.050825516,0.030889895,0.033261438
2.72,0.031770564,0.072970336,0.050824710937499996,0.030890263671874998,0.033262710937499995
2.724,0.031771636718749996,0.072968055,0.050821289,0.030890732421874997,0.033261941406249995
2.728,0.031772543,0.072965773,0.050815824,0.030889525,0.033261168
2.732,0.031772878906249996,0.072963633,0.050819746,0.030888789062499998,0.033261168
2.736,0.031773381,0.072962789,0.050828699218749995,0.030888588,0.033262844
2.74,0.031774855,0.072961219,0.050827390624999996,0.03088842,0.033264355
2.744,0.031776566,0.072959508,0.050824675781249995,0.030888687499999998,0.033265762
2.748,0.031777941406249996,0.07295743,0.050818773,0.030887347656249998,0.033266129
2.752,0.031779248,0.07295518,0.050823102,0.030886642578124998,0.033266867
2.756,0.031780557,0.072953906,0.050831480468749995,0.030886777343749998,0.033269148
2.76,0.031782199,0.072952664,0.050830844,0.03088691,0.033271598
2.764,0.031783908203124996,0.072950586,0.050827961,0.030886341796874998,0.033271762
2.768,0.031784781,0.072947133,0.050820988,0.030883826,0.033270554687499995
2.772,0.031784914062499996,0.072944086,0.050824309,0.030882619140624998,0.033270457
2.776,0.031785652,0.07294257,0.05083259,0.030882150390624998,0.033270992
2.78,0.031787295,0.072940766,0.050831348,0.030881478515624998,0.033271227
2.784,0.031788234,0.072938148,0.050826152,0.0308794,0.033270723
2.788,0.031788234,0.072935297,0.050820082,0.030877221,0.033270422
2.792,0.031789004,0.072933188,0.050824777343749995,0.030875813,0.033270121
2.796,0.031789508,0.072932148,0.050831582031249996,0.03087474,0.033271059
2.8,0.03179048,0.072930875,0.050829906,0.030873064453124998,0.033272769531249996
2.804,0.031791117187499995,0.072928891,0.050824809,0.030871923828124998,0.033273172
2.808,0.031791453,0.072926078,0.050817332031249995,0.030869879,0.033271563
2.812,0.031791955078124996,0.072923063,0.05082102,0.030868168,0.033270554687499995
2.816,0.031792525,0.072921016,0.050828429687499996,0.030867633,0.033271664
2.82,0.031793195,0.072918672,0.050826723,0.03086666,0.033272836
2.824,0.031792861,0.072915687,0.050823265624999996,0.030865721,0.033273676
2.828,0.031792189,0.072911859,0.050816797,0.030864045,0.033273707031249995
2.832,0.031792089843749996,0.072908305,0.050820922,0.030863105,0.033274011718749996
2.836,0.031792928,0.072905992,0.050829066,0.030862939,0.033274246
2.84,0.031793934,0.072903648,0.050827961,0.030863140624999997,0.033274781249999996
2.844,0.031794101562499996,0.072900398,0.050824375,0.030862805,0.033274949218749995
2.848,0.031793631,0.072896641,0.05081807,0.030861129,0.03327307
2.852,0.03179343,0.072892453,0.050821859,0.030859451,0.033273004
2.856,0.03179343,0.07288893,0.050829570312499996,0.030859484,0.033274914
2.86,0.031794269531249995,0.072884906,0.050828465,0.030859082,0.033276188
2.864,0.031794504,0.072881523,0.050825949,0.030857775390624998,0.033277297
2.868,0.031794672,0.072877734,0.050820453,0.03085573,0.033276258
2.872,0.031794873,0.072874813,0.050823504,0.030853919921874997,0.033275117
2.876,0.031795643,0.072872703,0.050831148,0.030853349609374997,0.033276188
2.88,0.031796717,0.072870555,0.050830344,0.030853214843749997,0.033278601562499996
2.884,0.031797354,0.072867938,0.050825984,0.030852143,0.033280211
2.888,0.03179799,0.072864688,0.050818843749999995,0.030850197265624997,0.033280949
2.892,0.031798056640624996,0.072861336,0.050824039,0.030848623,0.033279777
2.896,0.031798795,0.072859961,0.050833797,0.030848789,0.033279309
2.9,0.031799801,0.072858352,0.050831883,0.03084832,0.033284469
2.904,0.031800203124999996,0.072855805,0.050826152,0.03084651,0.033288324
2.908,0.031799768,0.072852586,0.050819277,0.030843693359374997,0.033289129
2.912,0.031799365,0.072849672,0.050823066,0.03084242,0.033290773
2.916,0.031800236,0.072848094,0.050830676,0.030842621093749998,0.033291512
2.92,0.031801578,0.072845781,0.050828934,0.03084185,0.033293152
2.924,0.03180141,0.072842797,0.050825277343749996,0.030840207031249997,0.033294929687499995
2.928,0.031800941,0.072839141,0.050819578,0.030838162109374997,0.033295703
2.932,0.031800807,0.07283525,0.050823168,0.030837189,0.033296676
2.936,0.031802014,0.07283307,0.050831480468749995,0.030836652,0.033298316
2.94,0.031803656,0.07283143,0.050830645,0.030836619140624997,0.033299895
2.944,0.031804797,0.072828047,0.050826387,0.030835814,0.033300063
2.948,0.031804527,0.072824258,0.050820453,0.030834205,0.033300262
2.952,0.03180483,0.072822375,0.050824777343749995,0.030833602,0.03330073
2.956,0.031805635,0.07282057,0.05083259,0.030833635,0.033302406
2.96,0.031805936,0.072819125,0.050830878906249995,0.030833502,0.033304586
2.964,0.031807277343749996,0.072817852,0.050827191,0.030832025,0.033304086
2.968,0.031807881,0.072814797,0.050820484374999995,0.030829544921874997,0.033301973
2.972,0.031807344,0.07281168,0.050824875,0.030827969,0.033301973
2.976,0.031807344,0.072809602,0.050833191,0.030827902343749998,0.033305324
2.98,0.031808148437499996,0.072808023,0.05083259,0.030827902343749998,0.033307469
2.984,0.031809088,0.072806688,0.050829336,0.030827800781249998,0.033307871
2.988,0.031808551,0.07280293,0.050824141,0.030827064453124997,0.033307703
2.992,0.031808283203124996,0.072799078,0.050829137,0.030826393,0.033308711
2.996,0.031808451,0.072796797,0.050836812499999995,0.030826695,0.033310387
3,0.031809791,0.072794648,0.050835773437499995,0.030827064453124997,0.033311762
3.004,0.031811133,0.072791867,0.050831883,0.03082626,0.033312230468749995
3.008,0.031810764,0.072788211,0.050825145,0.030824281,0.033311191406249996
3.012,0.031810429687499996,0.072785297,0.050828465,0.030823980468749998,0.033311492
3.016,0.031810998,0.07278318,0.050836211,0.030823980468749998,0.033312933593749997
3.02,0.031812171874999996,0.072780602,0.050835406,0.030823476562499997,0.033314848
3.024,0.031812541,0.072777313,0.050832188,0.030822572265624997,0.033315214843749996
3.028,0.031811637,0.072773328,0.050826352,0.030820324218749997,0.033314578
3.032,0.031811535,0.072770008,0.050830980468749995,0.030819117187499998,0.033315348
3.036,0.031812474609374995,0.072768602,0.050839059,0.030819186,0.03331632
3.04,0.031813447265624996,0.072766555,0.050837918,0.030819419921874997,0.033318602
3.044,0.031813916,0.07276407,0.05083507,0.030818714843749997,0.033319941
3.048,0.031814889,0.072761758,0.050830207,0.030817207,0.033318367187499996
3.052,0.031815156,0.072759578,0.050834297,0.030815531,0.033318066
3.056,0.03181566,0.072758242,0.050841910156249996,0.030815330078124998,0.033320445312499995
3.06,0.031817402343749995,0.072756867,0.050840535,0.030815396,0.033321719
3.064,0.031818408203124995,0.072754617,0.050836613,0.030814123,0.033322055
3.068,0.031818676,0.07275143,0.050830710937499995,0.030811809,0.033321519531249996
3.072,0.031819314,0.072748984,0.05083668,0.030810502,0.033321214843749995
3.076,0.03182032,0.072747375,0.050843852,0.030810267578124998,0.033322187499999996
3.08,0.031821158,0.072745664,0.050841273,0.030810166015624998,0.033322523
3.084,0.031821191,0.072743484,0.050837582031249995,0.030809428,0.033323465
3.088,0.031821762,0.072740641,0.05083232,0.030807215,0.033323027
3.092,0.031823371,0.072737047,0.05083584,0.030805203,0.033322187499999996
3.096,0.031824308593749996,0.072734938,0.050842211,0.030804869,0.033322691
3.1,0.031825113,0.072733359,0.050841808593749996,0.030804801,0.033323965
3.104,0.031825953,0.072731617,0.050838625,0.030803962890624998,0.033323496
3.108,0.031825818,0.072728766,0.050831749999999995,0.03080202,0.033322558593749996
3.112,0.031826188,0.072725953,0.050834531249999995,0.030800208984374997,0.033323094
3.116,0.031827729,0.072724344,0.050842344,0.030799404,0.033323699218749996
3.12,0.031828969,0.072722328,0.050842176,0.030798599609374998,0.033325074
3.124,0.031829842,0.072720148,0.050838086,0.030798062499999997,0.033326918
3.128,0.031830511718749996,0.072717133,0.050831113,0.030796387,0.033326348
3.132,0.031831584,0.072714148,0.050836141,0.030795648,0.033326749999999995
3.136,0.031832658203124996,0.072711906,0.050843718749999996,0.030795312499999998,0.03332732
3.14,0.031833496,0.072709391,0.050842445,0.030794744,0.033329129
3.144,0.031833463,0.072706102,0.050838957,0.030793871093749998,0.03333057
3.148,0.031833596,0.072702352,0.050832051,0.030792195,0.033330137
3.152,0.031833932,0.072699328,0.050835438,0.030790352,0.033330503906249996
3.156,0.031833998,0.072698023,0.050842512,0.030789682,0.033332683593749995
3.16,0.031833898,0.072696047,0.050840937499999996,0.030789043,0.033333688
3.164,0.031833562499999996,0.072693867,0.050837652,0.030787535,0.033333086
3.168,0.031833562499999996,0.072691117,0.050832152,0.030785422,0.033332414062499996
3.172,0.031834469,0.072689141,0.050836644531249996,0.030784652,0.033332852
3.176,0.031835373,0.072687531,0.050844793,0.030784686,0.033335367
3.18,0.031836781,0.072685516,0.050844391,0.030784785156249998,0.033337645
3.184,0.03183752,0.072682398,0.050841137,0.030783746093749998,0.033338184
3.188,0.031837318,0.072678742,0.050835773437499995,0.030781064,0.033337277
3.192,0.031837117,0.072675961,0.05083973,0.030779656,0.03333798
3.196,0.031837184,0.07267432,0.050848414,0.030780494,0.033341066
3.2,0.031837619140624995,0.072672844,0.050848043,0.030780797,0.033343511718749996
3.204,0.031837787,0.072670563,0.050844156249999994,0.030780326171874997,0.033344617
3.208,0.031837720703124996,0.072668016,0.050839125,0.030779053,0.033343949
3.212,0.031838861328124995,0.0726655,0.050844960937499996,0.030779119,0.033344352
3.216,0.031840705078124996,0.072663687,0.050851765624999996,0.030778986328124997,0.033344887
3.22,0.031841979,0.072661445,0.050850055,0.030778248046874998,0.033345859
3.224,0.031842381,0.072658531,0.050845965,0.030776572,0.033346363
3.228,0.031842045,0.072655406,0.050839762,0.030773519531249998,0.033346328
3.232,0.031842213,0.072653195,0.05084402,0.030772313,0.033345691406249996
3.236,0.031842615234374996,0.07265125,0.050851129,0.030772447,0.03334616
3.24,0.031843219,0.072649242,0.050850124999999996,0.030771441,0.033348172
3.244,0.031843654296874996,0.072647461,0.050846601562499996,0.030770504,0.033349348
3.248,0.031843621093749996,0.072645656,0.050840133,0.030768391,0.033347938
3.252,0.031843654296874996,0.072642398,0.050842883,0.030766646,0.033346832031249996
3.256,0.031843755859374996,0.072640359,0.050850156,0.030766646,0.033347672
3.26,0.031844158,0.072638711,0.050849016,0.030766781,0.033348879
3.264,0.031844492,0.072637336,0.050845766,0.030766346,0.033349516
3.268,0.031844561,0.072635531,0.050840801,0.030764971,0.033348441
3.272,0.031844794921874996,0.072633984,0.050845898437499995,0.030764031249999997,0.033349547
3.276,0.031845633,0.07263268,0.050853309,0.030763898,0.033352262
3.28,0.031846639,0.072630836,0.050853543,0.030764031249999997,0.033354207
3.284,0.031846906,0.072628789,0.050851765624999996,0.030763629,0.033354543
3.288,0.031846975,0.072626109,0.050846101562499996,0.030762055,0.033354242
3.292,0.031847176,0.07262393,0.050849789,0.030760848,0.033354074
3.296,0.031847947265624996,0.072622453,0.050856559,0.030759842,0.033354746
3.3,0.031848918,0.072621078,0.05085532,0.03075917,0.03335632
3.304,0.031849422,0.072618094,0.050851734,0.030758232,0.033357828124999996
3.308,0.031849689453124996,0.072614945,0.050845664,0.030756791,0.033358332
3.312,0.03185093,0.072612859,0.050849586,0.030755516,0.033359102
3.316,0.031851835937499996,0.072611523,0.050856797,0.030755146,0.033360645
3.32,0.031852439,0.072610719,0.050856023437499995,0.030754846,0.033362859
3.324,0.031853244,0.072609781,0.050852504,0.030754341796874998,0.033363059
3.328,0.031854115,0.072607602,0.050845227,0.030752732421874998,0.033360980468749996
3.332,0.031854853515624997,0.072605383,0.050848949218749995,0.03075109,0.03336041
3.336,0.031855389,0.072604648,0.050857398,0.030750688,0.033361551
3.34,0.031856496,0.072603914,0.050855824,0.030750419921874998,0.033362523
3.344,0.031857334,0.072601125,0.050851129,0.030749314,0.033362188
3.348,0.031857769531249996,0.072597539,0.05084543,0.030746631,0.033361082031249996
3.352,0.031858039062499996,0.072595094,0.050849855468749997,0.030744921874999998,0.033360746
3.356,0.031858574,0.072592914,0.050857062499999994,0.030744586,0.033362254
3.36,0.031859682,0.072590297,0.050855152343749994,0.030744049,0.033364367
3.364,0.03186052,0.072587445,0.050851332031249995,0.030742943,0.033364031249999995
3.368,0.031861055,0.072583727,0.050845227,0.030741769531249998,0.033363563
3.372,0.031861658,0.072580211,0.050850124999999996,0.030740595703124998,0.033364434
3.376,0.031863234,0.072577523,0.050857097656249996,0.030740429687499998,0.033366613
3.38,0.031864309,0.072575648,0.050855219,0.030740160156249998,0.033369296874999996
3.384,0.031864609,0.072574039,0.050850894531249996,0.030739389,0.033369465
3.388,0.03186451,0.072570688,0.050844691406249996,0.030737142578124998,0.033366949
3.392,0.031864342,0.072567805,0.050848715,0.030735734374999997,0.033365809
3.396,0.031864543,0.072566797,0.050855152343749994,0.030734596,0.033365941406249995
3.4,0.031865447,0.072565352,0.050853309,0.03073302,0.033365473
3.404,0.031865447,0.072563344,0.050848781249999996,0.030731578,0.03336641
3.408,0.03186585,0.072560492,0.050843586,0.030730438,0.033367117187499996
3.412,0.031866789,0.072558344,0.050848882812499996,0.030729767578124997,0.03336802
3.416,0.031867459,0.072557375,0.050856226562499995,0.030729801,0.033369395
3.42,0.0318686,0.072556836,0.050854348,0.030729566,0.033371574
3.424,0.031869438,0.07255593,0.050850191406249995,0.030728492187499998,0.033372445
3.428,0.031869136718749996,0.072553617,0.050844492,0.030726783,0.033373218749999996
3.432,0.031869338,0.072551773,0.050849050781249995,0.030725474609374998,0.033375262
3.436,0.031870008,0.072550836,0.050856426,0.030725005859374998,0.033377543
3.44,0.031871046874999996,0.07255,0.050855656,0.030724101562499998,0.033379188
3.444,0.031871080078124996,0.072547516,0.050851999999999994,0.030722658,0.033380461
3.448,0.031871214843749995,0.072544969,0.050846066406249994,0.030719877,0.033378617
3.452,0.031871684,0.072542555,0.05084952,0.030717931640624998,0.033376906
3.456,0.031872521,0.072541453,0.05085693,0.030717229,0.033378011718749996
3.46,0.031873797,0.072540039,0.050854617,0.030716691,0.033378852
3.464,0.031874299,0.072537828,0.050849285,0.030715686,0.033379453
3.468,0.031874097656249996,0.07253468,0.050842914062499994,0.030714511718749997,0.033380292968749996
3.472,0.031873395,0.072532664,0.05084952,0.030715015624999998,0.033381699
3.476,0.031875037,0.072531492,0.050857164062499995,0.030714376953124997,0.033381633
3.48,0.031876980468749996,0.072529813,0.050854313,0.030712836,0.033380797
3.484,0.031877418,0.072528102,0.050850762,0.030711629,0.033379992
3.488,0.031877887,0.072526164,0.050845832031249996,0.030710188,0.033378414
3.492,0.031878154296874996,0.072524352,0.050851262,0.030709818,0.033378215
3.496,0.031878423828124995,0.072524219,0.05085857,0.030709482,0.033380797
3.5,0.031879697,0.072523844,0.050856124999999995,0.030708410156249998,0.033381734
3.504,0.031880267578124996,0.072522844,0.050852371093749994,0.030707269531249998,0.033382641
3.508,0.031880166015624996,0.072520563,0.050846336,0.030705594,0.033382809
3.512,0.031879496,0.072518586,0.050851598,0.030704353515624998,0.033383914
3.516,0.031879664,0.072518148,0.050858773,0.030703951171874997,0.033385223
3.52,0.031879865,0.072517141,0.050856461,0.03070385,0.033387199
3.524,0.031879832,0.072514992,0.050851832031249995,0.030702877,0.033388339843749996
3.528,0.031880267578124996,0.072512719,0.050845328,0.030700228515624997,0.033387398
3.532,0.031880300781249996,0.072510367,0.050850258,0.030698183593749997,0.033387434
3.536,0.031880803,0.072509367,0.050857332,0.030696508,0.033387398
3.54,0.031881508,0.072507656,0.050855285,0.030695367,0.03338693
3.544,0.031881574,0.072505742,0.050850289,0.030693926,0.033386797
3.548,0.031881306640624996,0.072503664,0.050843988281249995,0.030691613,0.033387199
3.552,0.031881373,0.072500781,0.05084875,0.030690205078124998,0.033388004
3.556,0.031881842,0.072500039,0.050856594,0.030690406,0.033390352
3.56,0.03188201,0.072500078,0.050855453,0.030690238281249997,0.03339377
3.564,0.03188191,0.072499805,0.050852336,0.030689734,0.033395582031249996
3.568,0.031882613,0.072498,0.050846769531249995,0.030688293,0.033394609374999995
3.572,0.031883553,0.072496289,0.050851566,0.030686917968749998,0.033394375
3.576,0.031883854,0.072495352,0.050858304687499994,0.030686281,0.033394710937499995
3.58,0.031885297,0.072495617,0.05085552,0.030685578124999998,0.033395210937499996
3.584,0.031886906,0.07249518,0.050850289,0.030684035156249997,0.033395043
3.588,0.031886973,0.072493234,0.050843886718749995,0.030681486,0.033394710937499995
3.592,0.03188657,0.072491859,0.050849957,0.030680113281249997,0.033395648
3.596,0.031886369140624995,0.072491492,0.050858004,0.030679978515624998,0.033398164
3.6,0.031887309,0.072490688,0.050857633,0.030679643,0.033400207
3.604,0.031887979,0.072489016,0.050854617,0.030679039,0.033400309
3.608,0.031887744,0.072486867,0.050849652343749996,0.030678033,0.033399469
3.612,0.031887777,0.07248532,0.050856058593749996,0.030677598,0.033400242
3.616,0.031888549,0.072485227,0.050863637,0.030677699,0.03340148
3.62,0.031889152,0.072485156,0.050862563,0.030678168,0.033402621
3.624,0.031889621,0.07248368,0.050858809,0.030678201,0.033403059
3.628,0.031889119,0.072480594,0.050852941,0.030676357421874998,0.033402754
3.632,0.031889152,0.072478555,0.050857566,0.03067515,0.033402754
3.636,0.031889723,0.072476609,0.050863266,0.030674613,0.033402422
3.64,0.031891029,0.072474125,0.050859746,0.030673307,0.03340202
3.644,0.03189123,0.072471406,0.050854246,0.030670658,0.033400508
3.648,0.031889419921874995,0.072467953,0.050848113281249996,0.030667539,0.033398332
3.652,0.031888347656249996,0.072464305,0.050853813,0.03066516,0.03339793
3.656,0.031887811,0.072461789,0.050860484,0.03066432,0.033399066
3.66,0.031887576,0.072459008,0.050857933593749995,0.030663584,0.033400309
3.664,0.031887475,0.072455453,0.050854113281249995,0.030662208984374998,0.033400644531249996
3.668,0.031887408,0.072450625,0.05084925,0.030660029,0.033399871
3.672,0.031886973,0.072446094,0.050854414,0.03065842,0.033399906
3.676,0.031887006,0.072442477,0.050860082,0.030658050781249998,0.033401515624999996
3.68,0.031887072,0.072439188,0.050857902,0.030657516,0.033403594
3.684,0.031887309,0.072435469,0.050852605,0.030656074,0.03340366
3.688,0.031885865,0.072430234,0.050846906,0.030653057,0.033403594
3.692,0.03188476,0.072425883,0.050852402,0.030651714843749997,0.033405335937499996
3.696,0.031885363281249995,0.072423766,0.050860383,0.03065148,0.03340802
3.7,0.031886705,0.072421625,0.050858906249999995,0.030651246093749997,0.033409527343749995
3.704,0.031887543,0.072419242,0.05085448,0.03065034,0.033408723
3.708,0.03188848,0.072416156,0.050847742187499996,0.030648529296874998,0.033407684
3.712,0.031888447,0.072413242,0.050852941,0.030646719,0.033408457
3.716,0.031889251953124996,0.072411594,0.050859512,0.030645713,0.033409797
3.72,0.031890326,0.072409891,0.050857062499999994,0.030644271,0.033411773
3.724,0.031890828,0.072407406,0.050852101562499995,0.030641959,0.033412813
3.728,0.031889924,0.072403648,0.050846266,0.030638906,0.033412882812499996
3.732,0.031889419921874995,0.07239993,0.050851129,0.030637734,0.033412882812499996
3.736,0.031889789,0.072396914,0.050857968749999996,0.030637131,0.03341516
3.74,0.03189066,0.072394164,0.050855656,0.030636291015624997,0.033416266
3.744,0.031890425781249995,0.072391578,0.050851230468749994,0.030634380859374997,0.033416066
3.748,0.031890425781249995,0.072389203,0.050845395,0.030631264,0.033413550781249995
3.752,0.031890729,0.072386891,0.050850457,0.03062915,0.033411707
3.756,0.031891533203124996,0.072384539,0.050856124999999995,0.03062858,0.033412313
3.76,0.031891768,0.072381891,0.05085341,0.030627406,0.03341409
3.764,0.031891834,0.072379008,0.050849050781249995,0.030625395,0.033414691406249995
3.768,0.031891431640624995,0.072375656,0.050843484,0.030622544921874998,0.033413785
3.772,0.031891332,0.07237257,0.050848613281249996,0.030620936,0.033413887
3.776,0.03189123,0.072369281,0.050854984374999995,0.030620130859374997,0.033415933593749995
3.78,0.031891734,0.072366539,0.050853843749999995,0.030619863,0.033417375
3.784,0.031892572265624995,0.072363617,0.050850960937499995,0.030618254,0.033417238
3.788,0.031892404296874996,0.072358891,0.05084543,0.030615773437499997,0.033415933593749995
3.792,0.031892537,0.072354898,0.050849820312499995,0.030614666,0.03341516
3.796,0.031892437499999995,0.072351984,0.050856324,0.030614599609374998,0.033416973
3.8,0.031892906,0.072349367,0.05085418,0.030614599609374998,0.033419585937499996
3.804,0.031893074,0.072345914,0.050850191406249995,0.030614834,0.033420023
3.808,0.031893176,0.072341625,0.050844625,0.030613963,0.033419184
3.812,0.031893711,0.072338203,0.050848348,0.030612654,0.033419016
3.816,0.031894717,0.072336227,0.05085448,0.030612990234374998,0.033420324
3.82,0.031894818,0.072333742,0.050852941,0.030613593749999998,0.033422871
3.824,0.031894885,0.07233143,0.050848847656249994,0.030612924,0.033422468749999996
3.828,0.031894785,0.07232875,0.050842145,0.03061108,0.033421597656249996
3.832,0.03189475,0.072326,0.050845730468749996,0.030609101562499998,0.033422203
3.836,0.031895053,0.072325063,0.050851933593749996,0.030607525390624998,0.033422871
3.84,0.031895320312499996,0.072323453,0.050850124999999996,0.030606820312499998,0.03342448
3.844,0.031895756,0.072321406,0.050848011718749996,0.030605982421874997,0.033424785
3.848,0.031897466796874996,0.072318828,0.050841941,0.030603970703124997,0.033421297
3.852,0.031898205,0.072315875,0.050844793,0.030602195,0.033418246
3.856,0.03189817,0.072314234,0.05085143,0.030601793,0.033417574218749996
3.86,0.031898205,0.072311617,0.050850996093749996,0.030602060546874997,0.033419016
3.864,0.031897768,0.072308969,0.050847172,0.030601557,0.033420793
3.868,0.031897635,0.072306992,0.050841371,0.030599781,0.033421898
3.872,0.031897635,0.072304578,0.050846535,0.030598137,0.033423543
3.876,0.031898271,0.0723025,0.050852637,0.030597734374999998,0.033425555
3.88,0.031899914,0.072300555,0.050850426,0.030597433593749997,0.033427098
3.884,0.031900382812499996,0.072297398,0.050846066406249994,0.030596427734374997,0.033426863
3.888,0.031900382812499996,0.072294219,0.050840835937499995,0.030594785,0.033424984
3.892,0.031900986,0.072291164,0.050846906,0.030593677734374998,0.03342418
3.896,0.031901791,0.072289187,0.050853843749999995,0.030593912,0.033425957
3.9,0.031902664062499995,0.072286844,0.050852035156249996,0.030592941406249997,0.033428473
3.904,0.031902764,0.072283789,0.050848078124999994,0.030591566,0.033429812499999996
3.908,0.031902797,0.072279969,0.05084325,0.03058885,0.0334275
3.912,0.031903334,0.072276344,0.05084925,0.030587074,0.033426660156249996
3.916,0.031903904,0.072273734,0.050855687499999996,0.030586402,0.033427566
3.92,0.031904037,0.072270914,0.050853746,0.030584994,0.03342941
3.924,0.031904037,0.072267727,0.050849753906249996,0.03058352,0.033429980468749995
3.928,0.031903736,0.072263672,0.050845027343749995,0.030581742,0.03342968
3.932,0.031904273,0.072259914,0.050851262,0.030580904,0.033430348
3.936,0.031904205,0.072258141,0.050858070312499996,0.030580402,0.033430582031249996
3.94,0.031904139,0.072256563,0.050857129,0.030580234374999998,0.033431722656249996
3.944,0.031904172,0.072253914,0.050853309,0.030579093749999998,0.03343216
3.948,0.031904439453124996,0.072250328,0.050848246,0.030576613281249998,0.033430953124999996
3.952,0.031905412109374996,0.072247852,0.050853375,0.030575137,0.033430582031249996
3.956,0.031905982,0.072246875,0.050859175781249995,0.030574266,0.033431152
3.96,0.031905646,0.072245234,0.050857734,0.030573193359374997,0.033433367
3.964,0.031905646,0.072243523,0.050853746,0.030572455078124998,0.033433434
3.968,0.031905681640624996,0.072240375,0.050849285,0.030570176,0.033432059
3.972,0.031905613,0.072238258,0.050855621,0.030568867187499998,0.033432328
3.976,0.031905814,0.072237555,0.050862594,0.030568734,0.033433801
3.98,0.031906217,0.072236953,0.050861758,0.030568431640624998,0.033436117187499996
3.984,0.031906955,0.072235914,0.050857801,0.030567359,0.033435949
3.988,0.03190682,0.072233461,0.050853105,0.030565314,0.033435949
3.992,0.031907055,0.072231688,0.050859878906249996,0.030566051,0.033439234
3.996,0.031909268,0.072231383,0.050865344,0.030566119140624997,0.03344007
4,0.031911045,0.072229945,0.050861422,0.030564207,0.033439031
4.004,0.031911749999999996,0.072227734,0.050856394531249995,0.030561826171874997,0.033438227
4.008,0.031911549,0.072225117,0.050849753906249996,0.030559011718749998,0.033437691
4.012,0.031911615234374996,0.072222234,0.050853711,0.030556598,0.033438363
4.016,0.031911984,0.072219586,0.050859477,0.030556294921874998,0.033441347656249995
4.02,0.031912755859374996,0.072218008,0.050858336,0.030555826171874998,0.033443559
4.024,0.031913693,0.07221543,0.050854582,0.030554184,0.033443055
4.028,0.031913359,0.072212039,0.05084952,0.030552136718749998,0.033442050781249996
4.032,0.031913525390624996,0.072209594,0.050854785,0.030551199,0.033442320312499996
4.036,0.031914365,0.072208719,0.050859914,0.030551667968749998,0.033444633
4.04,0.03191527,0.072207578,0.050858035156249995,0.030552136718749998,0.033446543
4.044,0.031915572,0.072205234,0.050854382812499994,0.030551064,0.033446609
4.048,0.031915773437499996,0.072201914,0.05084925,0.030548617,0.033444766
4.052,0.031916542968749996,0.072199469,0.050853945312499996,0.030546404,0.033443727
4.056,0.031916309,0.072198328,0.050858809,0.030544861,0.033444164
4.06,0.031915572,0.072197055,0.05085723,0.030544695,0.033446910156249995
4.064,0.031915906,0.072194906,0.050853375,0.030543822,0.033447348
4.068,0.031915806640624995,0.072192094,0.050848113281249996,0.030541207,0.033445035
4.072,0.031915404,0.072189875,0.050854145,0.030540234,0.033446508
4.076,0.031916041,0.072188438,0.050861625,0.030540771,0.033448723
4.08,0.031916912,0.072186563,0.050860652,0.030540771,0.033449797
4.084,0.031917348,0.072184047,0.050856762,0.030539934,0.033449629
4.088,0.03191708,0.072180227,0.050851363,0.030538224609374998,0.033449124999999996
4.092,0.031917383,0.072177813,0.050856726562499996,0.030537251953124997,0.033450199
4.096,0.031917885,0.072176063,0.050862125,0.030537889,0.033451773
4.1,0.031918422,0.072174422,0.050859645,0.030537955078124998,0.033452777
4.104,0.031917885,0.072172211,0.050855656,0.030536883,0.03345325
4.108,0.031917416,0.072169625,0.050850960937499995,0.030534535156249997,0.033452746
4.112,0.031917852,0.072166977,0.050857398,0.030533563,0.033454152
4.116,0.03191832,0.072165305,0.050863535,0.030534201171874997,0.033455762
4.12,0.031918722656249995,0.072163563,0.050862695,0.030534535156249997,0.033457438
4.124,0.031917818359374996,0.072161148,0.050860348,0.030534234,0.033458914
4.128,0.031917650390624996,0.072158398,0.050855453,0.030532958984374997,0.033457507812499995
4.132,0.03191802,0.07215632,0.050860617,0.030532557,0.033457875
4.136,0.031918521,0.072155547,0.050866484,0.030532892578124998,0.033460324
4.14,0.031919494,0.072155008,0.050864605,0.030532121,0.033462805
4.144,0.031920266,0.072154203,0.050859848,0.030530412,0.033462367
4.148,0.031920768,0.072151727,0.050854078,0.030527764,0.033459719
4.152,0.031921104,0.07214918,0.050859344,0.030525248,0.033459586
4.156,0.031921641,0.072148102,0.050865949,0.030524344,0.033462503906249996
4.16,0.031922344,0.072146258,0.050864171874999996,0.03052374,0.033463809
4.164,0.031922344,0.072143875,0.050860582,0.030522365234374998,0.033463441406249995
4.168,0.031922779296874995,0.07214143,0.050856527,0.030519951171874997,0.033463641
4.172,0.031923785156249995,0.07213982,0.050861625,0.030517369,0.033463711
4.176,0.031924055,0.072138516,0.050866285156249996,0.030515994,0.033464379
4.18,0.031924188,0.072136266,0.05086377,0.030514787,0.033465285156249996
4.184,0.031924757812499996,0.072133852,0.050858238281249996,0.030512742187499997,0.033463641
4.188,0.031924355,0.07213107,0.050851969,0.030510328,0.033462703
4.192,0.03192392,0.072128922,0.050857836,0.030509189,0.033463207
4.196,0.031924289,0.072127719,0.050863199218749995,0.030508216796874998,0.033463641
4.2,0.031925127,0.072126609,0.050861422,0.030506943,0.033464277
4.204,0.031925395,0.072124766,0.050857062499999994,0.030504797,0.033463844
4.208,0.03192392,0.07212175,0.050852101562499995,0.030502684,0.033464113
4.212,0.031923619,0.072119031,0.050858336,0.030502013671874998,0.033464113
4.216,0.03192325,0.07211682,0.050864339843749995,0.030501947,0.033465051
4.22,0.031923418,0.072114813,0.050862664,0.030501846,0.033466425781249996
4.224,0.03192335,0.072112797,0.050858809,0.030500305,0.033465789
4.228,0.031923148,0.072109883,0.050853039,0.030498560546874998,0.033463542968749996
4.232,0.031923451,0.072107398,0.050858707,0.030496816,0.033463945
4.236,0.031924355,0.072105086,0.050864305,0.030496080078124998,0.033465789
4.24,0.031924256,0.072102875,0.050862094,0.030495644531249998,0.033466691
4.244,0.03192392,0.072099922,0.050858738281249996,0.030494671874999997,0.033466289
4.248,0.031924523,0.072097109,0.050854113281249995,0.030491988,0.033464445
4.252,0.031924289,0.072095563,0.050860316406249995,0.030490447265624998,0.033465016
4.256,0.031924523,0.072094523,0.050866215,0.030491285,0.033467566406249996
4.26,0.031925664,0.072093719,0.050864203,0.030491050781249997,0.033469141
4.264,0.031926301,0.07209218,0.050859578,0.030489541,0.033468132812499995
4.268,0.0319261,0.072089734,0.050854449,0.030487799,0.033465754
4.272,0.031926133,0.07208893,0.050860652,0.030487832,0.033466625
4.276,0.031926535,0.072088391,0.050866785,0.030489005859374998,0.033469543
4.28,0.031927808593749996,0.072088258,0.050865344,0.030489574,0.033471656249999995
4.284,0.031927977,0.07208725,0.05086132,0.030489039062499997,0.033471152
4.288,0.031926769531249996,0.072084836,0.050858136718749995,0.030489039062499997,0.033472695
4.292,0.031927273,0.072082687,0.050865578,0.030490480468749998,0.033475543
4.296,0.031929652,0.072081219,0.050869637,0.030490378906249997,0.033476449218749996
4.3,0.031930727,0.072078766,0.050866148437499994,0.030489139,0.03347675
4.304,0.031930727,0.072075922,0.050862191,0.030486994140624998,0.033474875
4.308,0.031931095703124995,0.072073305,0.050857633,0.030484310546874997,0.033472425781249995
4.312,0.031931798828124996,0.072071156,0.050863703,0.030483943359374998,0.033472227
4.316,0.031933005859374995,0.072069445,0.050868363281249995,0.030483674,0.033473566406249995
4.32,0.031934414,0.072067367,0.050866047,0.030482937499999998,0.033474906
4.324,0.031935387,0.072065156,0.050862027,0.030481964843749997,0.033473766
4.328,0.031935285,0.072061437,0.050857265624999995,0.030479214843749998,0.033471656249999995
4.332,0.03193542,0.07205882,0.050862191,0.030477236328124997,0.033471922
4.336,0.03193609,0.072057477,0.050866551,0.030476834,0.033472863
4.34,0.031937398,0.072055734,0.050864004,0.030476632812499998,0.033473836
4.344,0.031937398,0.072053391,0.050860046874999995,0.030476029,0.033473836
4.348,0.031937029296874996,0.072050906,0.050856058593749996,0.030474789062499997,0.033472796874999995
4.352,0.031937666,0.072049195,0.050862328124999995,0.030474185546874998,0.033474004
4.356,0.031938873046874997,0.072048563,0.050868531249999994,0.030474354,0.033476148
4.36,0.031940348,0.072046914,0.050867222656249995,0.030474354,0.033477824
4.364,0.031940852,0.072044906,0.050863066,0.030473884765624997,0.033477992
4.368,0.031941389,0.072042289,0.050857933593749995,0.030471939,0.033477121
4.372,0.031942058593749996,0.07204075,0.050862664,0.030470867,0.033479066
4.376,0.031943299,0.072039773,0.050866887,0.030470732421874997,0.03348198
4.38,0.031943768,0.072038531,0.050864371,0.030469861,0.033483992
4.384,0.031943836,0.072035953,0.050861254,0.030468922,0.033484059
4.388,0.031943803,0.072032336,0.050856996093749995,0.030466742,0.033483055
4.392,0.031944439,0.072030086,0.050861758,0.030465501953124998,0.033482753906249996
4.396,0.031944406,0.072028078,0.050865078,0.030464765624999997,0.03348416
4.4,0.031944842,0.07202643,0.05086273,0.030464328,0.03348577
4.404,0.031945209,0.072024555,0.05085857,0.03046282,0.033486207
4.408,0.031945377,0.072022273,0.050854648,0.030461009765624998,0.033485504
4.412,0.031946249999999995,0.072021031,0.050861859,0.030460541,0.033485871
4.416,0.031946887,0.072020195,0.050867019531249995,0.030460541,0.033486711
4.42,0.031947355,0.072019188,0.05086541,0.030459635,0.03348768
4.424,0.031947691,0.072017648,0.050861055,0.030457689,0.033487848
4.428,0.031947221,0.072015234,0.050856426,0.030455109374999997,0.033487914
4.432,0.031947658,0.072014195,0.050862429687499995,0.03045417,0.033488417968749996
4.436,0.031947926,0.072013992,0.050868058593749994,0.030453833984374998,0.033491035
4.44,0.031948629,0.072013758,0.050867054687499996,0.030454070312499998,0.033492844
4.444,0.031949535,0.07201275,0.050863066,0.0304536,0.033492207
4.448,0.031949938,0.07201057,0.050859141,0.030452091796874997,0.033489726562499995
4.452,0.031950574,0.072009133,0.050865312499999996,0.030450684,0.033488621
4.456,0.031951412,0.072007688,0.050869906,0.030450582,0.033489691
4.46,0.031952048828124996,0.07200675,0.050868027,0.030450951171874997,0.033491605
4.464,0.03195252,0.072005508,0.050864339843749995,0.030450012,0.033491773
4.468,0.031953357,0.072002695,0.050859945312499995,0.030447498,0.033489996
4.472,0.03195376,0.072000914,0.050864371,0.030446189453124998,0.033491066
4.476,0.031952285156249996,0.071999406,0.050869066406249996,0.030447330078124998,0.033493984
4.48,0.031951682,0.071997969,0.050867390624999995,0.030447765624999998,0.033495293
4.484,0.031951916,0.071995719,0.050862664,0.030445855468749998,0.033494117
4.488,0.031951748,0.071991633,0.050857363,0.030442871093749997,0.033491371
4.492,0.031952318359374995,0.071989117,0.050861824,0.030441195,0.033491066
4.496,0.031952015624999996,0.071986805,0.050865210937499995,0.030439988,0.033491438
4.5,0.031952754,0.071984422,0.050862929687499996,0.030439887,0.033492309
4.504,0.031953291015624996,0.07198157,0.050858738281249996,0.030437943359374997,0.033491168
4.508,0.031952586,0.071977781,0.050854648,0.030434488281249998,0.033490129
4.512,0.031951682,0.071975672,0.050860852,0.030433584,0.033491371
4.516,0.031952015624999996,0.071973859,0.050865210937499995,0.030433551,0.033493785
4.52,0.031952619,0.071971008,0.050862359,0.030433518,0.033496164
4.524,0.031953256,0.071967961,0.050858406249999995,0.030433082,0.033496063
4.528,0.031952955,0.071963937,0.050854617,0.030430969,0.033496398
4.532,0.031953625,0.071962125,0.050861758,0.030429963,0.033498344
4.536,0.031954027,0.071962297,0.050867355,0.030429963,0.033499851562499995
4.54,0.031954766,0.071962094,0.050866117,0.030430130859374998,0.033502835937499996
4.544,0.031954832,0.071959781,0.050861422,0.030429092,0.033503605468749996
4.548,0.031954498,0.071956156,0.050856726562499996,0.030427113281249998,0.033502301
4.552,0.031955302734374996,0.071954148,0.050863097656249995,0.030427113281249998,0.033503172
4.556,0.031956006,0.07195307,0.050868531249999994,0.030427248046874997,0.033504547
4.56,0.031956475,0.071951563,0.050866519531249994,0.030426945,0.033505015624999995
4.564,0.031956877,0.071949117,0.050862261718749996,0.030425438,0.033503676
4.568,0.03195691,0.07194543,0.050857332,0.030423156,0.033503238
4.572,0.031956709,0.071943484,0.050862664,0.030422621093749998,0.033505586
4.576,0.031957012,0.07194275,0.050867656,0.030423393,0.033507796874999995
4.58,0.031957715,0.071941305,0.050866148437499994,0.030423558593749997,0.033509375
4.584,0.03195842,0.071939023,0.050862761718749996,0.030421916015624998,0.033508937499999995
4.588,0.031958688,0.071935977,0.050859043,0.030420005859374998,0.033507461
4.592,0.031959594,0.071933828,0.050865042968749996,0.030419167968749997,0.033508101562499996
4.596,0.031960934,0.071932789,0.050870309,0.030419066406249997,0.033508937499999995
4.6,0.0319609,0.071931211,0.050868598,0.030418529,0.03351048
4.604,0.031960263671874996,0.071928734,0.050864773,0.030415781,0.033509039062499996
4.608,0.031960128906249996,0.071925914,0.050860016,0.030412461,0.033507297
4.612,0.031960432,0.071923297,0.050865445,0.030411188,0.033507531
4.616,0.0319606,0.071921289,0.050869335937499996,0.030410851562499997,0.033509207
4.62,0.031961134765624996,0.071920414,0.050868563,0.030410551,0.033509945
4.624,0.031961236328124996,0.071917766,0.050865512,0.030409611,0.033510043
4.628,0.031960969,0.071914516,0.050862461,0.030408337890624998,0.033510379
4.632,0.031961035,0.071912977,0.050868531249999994,0.030407299,0.033511387
4.636,0.031961738,0.071912273,0.050872855,0.030406695,0.033512121
4.64,0.031962912,0.0719115,0.050870976562499996,0.030405755859374998,0.033511352
4.644,0.031962912,0.071908953,0.050867156,0.030404012,0.033510949218749995
4.648,0.031962376953124996,0.071905867,0.050862965,0.030401498,0.033509875
4.652,0.031963113,0.071903383,0.050869102,0.030399822265624998,0.033510277
4.656,0.03196375,0.071901344,0.050872015624999996,0.030398246093749998,0.033510211
4.66,0.031963918,0.071899594,0.050869031249999995,0.030397240234374998,0.033511152343749996
4.664,0.03196375,0.071896711,0.05086541,0.030395765624999998,0.033512156
4.668,0.031963852,0.071893664,0.050862461,0.030392949,0.033511921874999996
4.672,0.03196365,0.071890813,0.050869434,0.030392379,0.033513297
4.676,0.031964086,0.071889336,0.050874262,0.030392379,0.033514402
4.68,0.031964689,0.071887859,0.050872988281249996,0.030392244,0.033515175781249996
4.684,0.03196459,0.07188568,0.050870070312499995,0.030391238,0.033514805
4.688,0.031964188,0.071882398,0.050866449,0.030388791,0.033513801
4.692,0.031965227,0.071879516,0.050872386718749996,0.030387283203124997,0.033515578
4.696,0.031965762,0.071876867,0.050877078124999996,0.030386611,0.033519129
4.7,0.0319665,0.071874617,0.050875805,0.030386344,0.03352007
4.704,0.031966332031249996,0.071872477,0.050871715,0.030384566406249997,0.033518594
4.708,0.031966098,0.071869391,0.05086843,0.030382219,0.033518762
4.712,0.031966164,0.071867977,0.050874496,0.030381214843749997,0.033519531
4.716,0.031966332031249996,0.071867578,0.050879395,0.030380846,0.033520738
4.72,0.031966836,0.07186657,0.050878421874999996,0.030380341796874998,0.033523019531249997
4.724,0.031967203124999996,0.071865164,0.050875773,0.030379404,0.033523055
4.728,0.031968008,0.071862852,0.050873324218749995,0.030377759765624998,0.033522652
4.732,0.031969049,0.071861406,0.050879895,0.030376654,0.033523926
4.736,0.031969854,0.071861375,0.050884992,0.030377123,0.033526070312499996
4.74,0.031970623,0.071861445,0.050883852,0.03037709,0.03352741
4.744,0.031971629,0.071860367,0.050880296874999995,0.030374811,0.033525468749999995
4.748,0.031971865,0.071858258,0.050875906,0.030371691406249998,0.033521945312499996
4.752,0.031971965,0.07185668,0.050883113281249996,0.030371121,0.033522348
4.756,0.031972904,0.071856242,0.050889184,0.030370887,0.03352473
4.76,0.031974178,0.071855641,0.050887238,0.030370283203124997,0.033527277
4.764,0.031975417968749996,0.071854305,0.050882043,0.030368775390624998,0.033526641
4.768,0.031975787,0.071850914,0.05087775,0.030367166,0.033525703
4.772,0.031976457031249995,0.071847664,0.050884055,0.030365892578124998,0.033526508
4.776,0.031976994,0.071845852,0.05088791,0.030365523,0.033527378906249995
4.78,0.031977766,0.071844078,0.050885629,0.030365389,0.033528418
4.784,0.031978300781249996,0.071841195,0.050880902,0.030364986,0.033529488
4.788,0.031978234,0.071837469,0.050877347656249995,0.030363443,0.033530261718749996
4.792,0.031978805,0.071835391,0.050884253906249996,0.030362404,0.033531469
4.796,0.031979609374999995,0.071834016,0.050888343749999995,0.03036207,0.033532238
4.8,0.031980414,0.071832305,0.050885797,0.030361801,0.033532742
4.804,0.031980984,0.071829828,0.050882074,0.030360326,0.033532273437499996
4.808,0.031981117,0.071827141,0.050878453,0.030357677734374998,0.033532508
4.812,0.031981555,0.07182543,0.050884488,0.030356639,0.033532945
4.816,0.031982158,0.071824227,0.050888914,0.030357041,0.033534586
4.82,0.031983297,0.071822586,0.050886902,0.030357375,0.033536296874999996
4.824,0.031983699,0.071821211,0.050882477,0.0303559,0.033536464843749995
4.828,0.031983599609374996,0.071819563,0.050878589843749995,0.030353519531249998,0.033535593749999995
4.832,0.031983398,0.071818195,0.050886164062499996,0.030352078124999998,0.033536328
4.836,0.031984035,0.071817289,0.050889887,0.030351576,0.033537102
4.84,0.031984873,0.071815508,0.050887105,0.030351408,0.033538105468749996
4.844,0.031985209,0.071813063,0.050883316,0.030350234,0.033537437499999996
4.848,0.031985309,0.071810313,0.050880398437499995,0.030348658,0.033535691
4.852,0.031985477,0.071808734,0.050887472656249995,0.030347686,0.033536027
4.856,0.031986449,0.071807867,0.050892265624999995,0.030347117187499998,0.033537738
4.86,0.031986717,0.071806391,0.050891629,0.030346880859374998,0.033540789
4.864,0.031987086,0.071803844,0.050887675781249996,0.030345842,0.033540152
4.868,0.031987623,0.071801492,0.050884523437499996,0.030343964843749998,0.033538645
4.872,0.031987756,0.071800859,0.050891699218749996,0.030342926,0.033539883
4.876,0.031988494,0.071799922,0.050896793,0.030342824218749998,0.033541727
4.88,0.031990002,0.071798813,0.050894917968749995,0.030342322,0.033542633
4.884,0.031990807,0.07179707,0.050890253906249995,0.030340109,0.033542633
4.888,0.031991344,0.071794484,0.050886066,0.030337695,0.033541391
4.892,0.031991712890624996,0.071792305,0.050892504,0.030336119,0.033541895
4.896,0.03199235,0.071790898,0.050898066,0.030335248,0.033544074
4.9,0.031993791,0.071788789,0.050896761718749996,0.030334878906249998,0.033545852
4.904,0.031994193,0.071786375,0.050893039,0.030333738281249998,0.033545652343749996
4.908,0.03199416,0.071783422,0.050890121,0.030331861328124998,0.033545414
4.912,0.031994529,0.071782453,0.050897898,0.030331392578124998,0.033546320312499996
4.916,0.031995535,0.071782047,0.050902461,0.030330855468749997,0.033546523437499996
4.92,0.031996172,0.071780438,0.050900312499999996,0.03033052,0.033546824
4.924,0.031996139,0.071778195,0.050896223,0.030330688,0.03354716
4.928,0.03199634,0.071776148,0.050893375,0.030329849609374997,0.033546992
4.932,0.03199701,0.071774938,0.050900113,0.030329045,0.033547664062499996
4.936,0.031997679687499996,0.071775039,0.050904738,0.030329346,0.03354907
4.94,0.031998184,0.071775172,0.050903766,0.030329514,0.033550949
4.944,0.031997949,0.071774539,0.050900617,0.030328609,0.033552355468749996
4.948,0.031998016,0.071773602,0.050898133,0.030326798828124998,0.033553129
4.952,0.031998217,0.071773297,0.050906015624999995,0.030326933593749997,0.03355507
4.956,0.031999021,0.071773266,0.050910305,0.030326664062499998,0.03355591
4.96,0.031999525,0.071773836,0.050907691,0.030325189453124998,0.033557051
4.964,0.032000094,0.07177343,0.050903632812499995,0.030323715,0.033557184
4.968,0.032000966796874995,0.071772492,0.050900281,0.030322508,0.03355668
4.972,0.032001972656249995,0.071771922,0.050907086,0.030322037109374998,0.033557352
4.976,0.032002342,0.071771016,0.050911644531249994,0.030321535,0.033558223
4.98,0.032002174,0.071769641,0.05090923,0.030321535,0.033558761718749996
4.984,0.032001703124999996,0.071768836,0.050906015624999995,0.030320932,0.033557988
4.988,0.032001771,0.071767164,0.050902425781249996,0.030319121,0.033557687499999996
4.992,0.032002207,0.071766055,0.050909469,0.030318416,0.03355809
4.996,0.032002876953124995,0.071765688,0.050913895,0.030318383,0.033559429687499996
5,0.03200375,0.071764852,0.050911277,0.03031798,0.033561074
5.004,0.032004051,0.071763711,0.050908328,0.030317142578124998,0.033561742
5.008,0.032005057,0.071762336,0.05090484,0.030315768,0.03356191
5.012,0.032006063,0.071761227,0.050912117187499994,0.030314896,0.033562281
5.016,0.03200623,0.071760789,0.050916676,0.030315097656249998,0.033563488
5.02,0.03200633,0.071760422,0.050915402,0.030315064,0.033565734374999996
5.024,0.032006365,0.071759789,0.05091225,0.030314191,0.033566035
5.028,0.032006732421874996,0.071758414,0.050908964843749994,0.030312918,0.033565164
5.032,0.032007773,0.071757672,0.050915133,0.030312146,0.033564191
5.036,0.032008645,0.071757273,0.050919426,0.030311912,0.033564863281249996
5.04,0.032009684,0.071756469,0.050917445,0.030311846,0.033566305
5.044,0.032010019531249996,0.071754586,0.050913727,0.030310438,0.033565800781249995
5.048,0.032009852,0.071752445,0.050910004,0.030307721,0.03356409
5.052,0.032010086,0.071750602,0.050916140624999995,0.030305744,0.033564695
5.056,0.032009984,0.071748961,0.050920765624999996,0.030304603515624997,0.033565934
5.06,0.032009917968749996,0.071747352,0.050919156,0.030303799,0.033566137
5.064,0.032009582,0.071745367,0.050914832031249996,0.030302558593749997,0.033565934
5.068,0.032009917968749996,0.071743258,0.050911882812499996,0.030300613,0.033564961
5.072,0.032010086,0.071742484,0.050919426,0.030299172,0.033564359
5.076,0.032010789062499996,0.07174225,0.050923714843749995,0.030297662109374998,0.033565164
5.08,0.032011191,0.07174175,0.050922742187499995,0.030297361328124998,0.033567812499999995
5.084,0.032011428,0.071740539,0.05091852,0.030296992,0.033568582031249995
5.088,0.032011359,0.071738195,0.050915804687499996,0.030296154,0.033567777
5.092,0.032011461,0.071736555,0.05092318,0.030295484374999997,0.033568012
5.096,0.032011629,0.07173457,0.050927406249999994,0.030295484374999997,0.03357016
5.1,0.032012365,0.071732961,0.050925527,0.030294914062499997,0.033571835937499996
5.104,0.032011695,0.071730953,0.050921469,0.030293941,0.033572437499999996
5.108,0.032011461,0.071728906,0.050919324,0.030292433593749998,0.033572976562499995
5.112,0.032012097656249995,0.071727633,0.050928074,0.030292466796874997,0.033573746093749995
5.116,0.032012434,0.071726797,0.050933238281249994,0.030292398,0.033575992
5.12,0.032012635,0.071725484,0.050932199218749995,0.030291561,0.033578273
5.124,0.032012332,0.071723641,0.050928375,0.030290455078124997,0.033578473
5.128,0.032012197,0.071721398,0.050924957031249996,0.030289348,0.033578574
5.132,0.032012398,0.071720492,0.050932800781249996,0.030288140624999998,0.033579211
5.136,0.032012836,0.071721195,0.050937093749999995,0.030287336,0.033580219
5.14,0.032015115234374995,0.071720859,0.050933773437499996,0.030285426,0.033579648
5.144,0.032016289,0.071719352,0.050927102,0.030282240234374997,0.033577234
5.148,0.032016289,0.071717039,0.050923214843749995,0.030279289,0.033574754
5.152,0.032017295,0.071715594,0.050931328124999994,0.030277781,0.033572910156249997
5.156,0.032017496,0.071714891,0.050936355,0.030277514,0.033574047
5.16,0.032018132812499996,0.071714086,0.050934109374999995,0.030278015624999998,0.033576395
5.164,0.032018568,0.071712883,0.050929785,0.030277478515624998,0.033576695
5.168,0.0320184,0.071711141,0.050927035156249995,0.030276607421874997,0.033577199
5.172,0.03201934,0.071710398,0.050935148,0.030275568359374998,0.033578273
5.176,0.032019977,0.071709531,0.050939874999999996,0.030274865,0.033580453
5.18,0.032019674,0.071708422,0.050938402343749994,0.0302754,0.033584141
5.184,0.032019809,0.071707078,0.050935183593749996,0.030275635,0.033586219
5.188,0.032020313,0.071706109,0.050932703,0.030275469,0.033585882812499995
5.192,0.032020982,0.07170557,0.050941183593749995,0.030276439453124998,0.033586085937499996
5.196,0.032022088,0.071704867,0.050945105468749995,0.030276541,0.033587156
5.2,0.032023093749999995,0.071703523,0.050942859374999996,0.030276641,0.033588097656249996
5.204,0.032023598,0.071701281,0.050937964843749996,0.030275535,0.033586957031249996
5.208,0.032023865,0.071698867,0.050934277,0.030274764,0.033587023437499995
5.212,0.032024604,0.071696219,0.05094182,0.030274865,0.033588434
5.216,0.032025105468749995,0.071694477,0.050946011718749996,0.030275031249999997,0.033589875
5.22,0.032025609,0.071693438,0.050943999999999996,0.030276037109374997,0.033592855
5.224,0.032025844,0.071692094,0.050940109,0.030275803,0.033594097656249995
5.228,0.032025979,0.071689812,0.050937296874999996,0.03027483,0.033594199218749995
5.232,0.032026682,0.071688039,0.050945176,0.030275199,0.03359477
5.236,0.032026984,0.071687195,0.050949128906249995,0.030275502,0.033596312499999996
5.24,0.032027721,0.071686633,0.05094675,0.030275469,0.033597484
5.244,0.032027957,0.071684953,0.050942289,0.030274697265624997,0.033597316
5.248,0.032027555,0.071682305,0.050939809,0.030273523437499998,0.033598086
5.252,0.032028123046874996,0.071681133,0.050948797,0.030273893,0.033600335937499996
5.256,0.032029164,0.071679961,0.050953355468749996,0.030274965,0.033602109
5.26,0.032029867,0.071678148,0.050950539062499994,0.030275199,0.033602984
5.264,0.032030035,0.0716765,0.050946582,0.030274664062499998,0.033602781
5.268,0.032029867,0.071674992,0.050943164,0.030273421874999998,0.033603015624999996
5.272,0.032030369,0.071673852,0.050950504,0.030273055,0.033604191
5.276,0.032031477,0.071672813,0.050953723,0.03027235,0.033605496
5.28,0.032031813,0.071672281,0.050951746,0.030272752,0.033607508
5.284,0.032032381,0.071670969,0.050948059,0.030272752,0.033607574
5.288,0.032032582,0.071669266,0.050945645,0.030272049,0.033607008
5.292,0.032033320312499995,0.071668891,0.050953758,0.030271376953124998,0.033607543
5.296,0.032034092,0.071668828,0.050957078,0.030269902,0.033607676
5.3,0.032034896,0.071668219,0.050954562499999995,0.030269634765624998,0.033609184
5.304,0.032034494,0.071666945,0.050950472656249995,0.030269097656249997,0.03360952
5.308,0.032034259765624996,0.071664531,0.050948023,0.03026826,0.033608883
5.312,0.032034427734374996,0.071663195,0.050956004,0.030268527343749997,0.033610089843749996
5.316,0.032035164062499996,0.071663063,0.050960160156249996,0.030268996,0.033611531
5.32,0.032035902,0.071662859,0.050957007812499996,0.030268695,0.033611434
5.324,0.032036037,0.071661281,0.050951879,0.030267521484374997,0.033610293
5.328,0.032035566,0.071658703,0.050949363,0.030265979,0.033609824
5.332,0.032036002,0.071656422,0.05095798,0.030264705,0.033611363
5.336,0.032036773,0.071654109,0.050960496093749995,0.030263768,0.033613777
5.34,0.032037109,0.071651328,0.05095691,0.030262962890624998,0.033615219
5.344,0.032036169921874996,0.071648203,0.050952082,0.03026152,0.033615824
5.348,0.032036203124999996,0.071644852,0.050948695,0.030259072,0.033614113
5.352,0.032037109,0.071642172,0.050955367187499996,0.030257966796874997,0.033612305
5.356,0.032037445312499996,0.07164043,0.050958922,0.030257027,0.033612906
5.36,0.032037578,0.071638148,0.05095684,0.030257027,0.033614887
5.364,0.03203768,0.071635063,0.050952484374999996,0.030257027,0.033615789
5.368,0.032037779,0.071631875,0.050949363,0.030256123,0.033616426
5.372,0.032037512,0.071629133,0.050957242187499995,0.030255451,0.03361834
5.376,0.032037611,0.071626445,0.050960898,0.030254613,0.033620016
5.38,0.03203825,0.071623828,0.050958484374999995,0.030253508,0.033620449
5.384,0.032038617,0.071619945,0.050953387,0.030251328124999997,0.033619949
5.388,0.032038617,0.071615617,0.050949499999999995,0.030249751953124997,0.033619949
5.392,0.032037578,0.071612602,0.050957949,0.030249718749999998,0.033623234
5.396,0.032037545,0.071610484,0.050962507812499995,0.030249551,0.033625344
5.4,0.032038986,0.071607805,0.050959891,0.030247674,0.033625277343749996
5.404,0.032039256,0.071604188,0.050955668,0.030245226562499998,0.033623973
5.408,0.032038283,0.071599758,0.050953957,0.030243683593749997,0.033623636718749995
5.412,0.032039322265624996,0.071596508,0.050961434,0.030242846,0.033622934
5.416,0.032040361328124996,0.071593625,0.050964887,0.030243182,0.033623535156249995
5.42,0.032040629,0.071591109,0.050962844,0.030243449,0.033624574
5.424,0.032040863,0.071588492,0.050957883,0.030241503906249998,0.033623097656249996
5.428,0.03204073,0.071585375,0.050955031,0.030238654296874997,0.033622363
5.432,0.032040059,0.071582156,0.050961836,0.030237916015624998,0.033624574
5.436,0.032040797,0.071579609,0.050965023,0.030238017578124998,0.033625344
5.44,0.032041333984374996,0.071577063,0.050963848,0.030236844,0.033626117
5.444,0.032041265624999996,0.071573641,0.050960328124999996,0.030235268,0.033625781
5.448,0.032041265624999996,0.071569648,0.050957277343749996,0.030233089843749998,0.033625145
5.452,0.032041736,0.071566469,0.050964789062499995,0.030231883,0.033625109
5.456,0.032041736,0.071564289,0.050968207,0.030231379,0.033624273
5.46,0.032042139,0.071562039,0.050966164,0.030230709,0.033624406249999995
5.464,0.032042139,0.071559125,0.050961871,0.030229099609374997,0.033625546874999995
5.468,0.032042541015624995,0.071556711,0.050959558593749996,0.030227658203124997,0.033625012
5.472,0.032043479,0.07155493,0.050966699218749995,0.030226752,0.033625313
5.476,0.032043814,0.071553391,0.050969883,0.030226584,0.033627793
5.48,0.032044217,0.071551914,0.050968441406249995,0.030226887,0.033630477
5.484,0.032045088,0.071549805,0.050964387,0.030225511718749997,0.033630008
5.488,0.032045423828124996,0.071546789,0.050962105,0.030223668,0.033630375
5.492,0.032045558593749995,0.071544305,0.050969383,0.030223365234374997,0.033631348
5.496,0.032046462890624995,0.071542023,0.05097307,0.030223031249999997,0.033632789
5.5,0.032047336,0.071539641,0.050970051,0.030222359374999997,0.033632922
5.504,0.032046934,0.071536227,0.050965593749999996,0.030220818,0.033631683593749996
5.508,0.032046294921874996,0.07153193,0.050963512,0.030218572,0.033631547
5.512,0.032046598,0.07152875,0.050971828,0.030217365234374998,0.033632422
5.516,0.032047502,0.071527102,0.050974679687499996,0.030216962890624997,0.033633895
5.52,0.032047738,0.071525359,0.050972766,0.030216895,0.033635402343749995
5.524,0.032047871,0.071522812,0.050968207,0.030215386718749997,0.033635672
5.528,0.032048508,0.071519391,0.050965895,0.030213341796874998,0.033633996
5.532,0.032048811,0.071516945,0.050974644531249995,0.03021257,0.033634598
5.536,0.032049414062499997,0.071515703,0.050979273,0.030212502,0.033636441406249995
5.54,0.032049916,0.07151443,0.050977359374999996,0.030212168,0.033637246093749996
5.544,0.032049783,0.071511914,0.050973539062499996,0.030211330078124998,0.033635707031249996
5.548,0.032049916,0.07150907,0.050970722656249995,0.030209285156249998,0.033634734374999996
5.552,0.032049951,0.071507992,0.050978835937499994,0.030208177734374998,0.033636374999999996
5.556,0.032050152,0.071507359,0.050982792968749996,0.030209988,0.033638757812499996
5.56,0.032050955,0.07150568,0.050981352,0.030210357421874997,0.033640703
5.564,0.03205109,0.071503102,0.050978266,0.030209586,0.033641406
5.568,0.032051357421874996,0.071499844,0.050977023,0.030209048828124998,0.033641539062499996
5.572,0.032052264,0.071497805,0.050984871093749995,0.030209183593749998,0.033641808593749996
5.576,0.032053336,0.071496594,0.050988426,0.030209854,0.03364325
5.58,0.032054678,0.071495219,0.050986914,0.030210525,0.033644422
5.584,0.032055683593749995,0.071492836,0.050982523437499996,0.03021009,0.033643418
5.588,0.03205602,0.071489617,0.050980242,0.030207977,0.033642547
5.592,0.032056789,0.071487344,0.050987719,0.030206871093749997,0.033643785
5.596,0.032057092,0.071485695,0.050990738281249996,0.030206871093749997,0.033646871093749996
5.6,0.032057795,0.071483992,0.050988559,0.030206434,0.033649621
5.604,0.032058768,0.071481172,0.050984301,0.030204824,0.033649820312499995
5.608,0.032057896,0.071477352,0.050981550781249996,0.030203148437499997,0.033648949
5.612,0.032057293,0.071474734,0.050989898,0.030202679687499998,0.033650758
5.616,0.032057628906249996,0.071472016,0.050993789062499996,0.030202779,0.033653141
5.62,0.032058467,0.071470211,0.050992582,0.030202611,0.033653879
5.624,0.032058467,0.071468227,0.050987719,0.030201707,0.033652367
5.628,0.032058434,0.071464609,0.050984902,0.030199762,0.033651562499999996
5.632,0.032058969,0.071461758,0.050992852,0.030198957031249998,0.033652535156249996
5.636,0.032059473,0.071459852,0.050996941406249996,0.030198891,0.033655555
5.64,0.032060176,0.0714575,0.050995800781249996,0.03019859,0.033656793
5.644,0.032060008,0.071451633,0.050992281,0.030197549,0.033657297
5.648,0.032060043,0.071444023,0.05099218,0.030196644531249997,0.033657734
5.652,0.032060947,0.071437656,0.051001164,0.030195773,0.033657801
5.656,0.032062053,0.071432359,0.051004484,0.030195672,0.03365968
5.66,0.032063025,0.071427898,0.051002238,0.030195939453124997,0.033661152
5.664,0.032063395,0.07142357,0.050998046874999994,0.030195335937499998,0.033661152
5.668,0.032063998,0.071419547,0.050996402,0.030194096,0.033661453
5.672,0.032064803,0.071416195,0.051003746093749996,0.030193861,0.033662965
5.676,0.032065742187499996,0.071413945,0.051005727,0.030193795,0.033662898
5.68,0.03206601,0.071411734,0.051003042968749995,0.030194431640624998,0.033664605
5.684,0.032065574,0.071408852,0.050999824218749996,0.030194365,0.033665914062499996
5.688,0.032066346,0.071404695,0.050997980468749995,0.030194029296874998,0.033665008
5.692,0.032067921874999995,0.071400742,0.051004117187499996,0.030193425781249998,0.033664171874999996
5.696,0.032068691406249995,0.071398156,0.051005824218749996,0.030193258,0.033663703
5.7,0.032069463,0.071395406,0.051002809,0.030192453124999998,0.033664574
5.704,0.032069262,0.071391586,0.050999086,0.030191582031249997,0.033665547
5.708,0.03207,0.071387867,0.050996539,0.030190475,0.033664508
5.712,0.032070904,0.071384914,0.051003879,0.030190576171874997,0.033664941406249996
5.716,0.032071777343749996,0.071382266,0.051007667968749996,0.03019148,0.033667523
5.72,0.032072546874999996,0.071379313,0.051005488,0.030191381,0.033669266
5.724,0.032073285,0.0713765,0.051000964843749996,0.030190375,0.033668832
5.728,0.032073687499999996,0.071373617,0.050998449,0.03019024,0.033668059
5.732,0.032074291,0.071371539,0.051006695312499996,0.030190509765624998,0.033668461
5.736,0.032074324,0.07136993,0.051010117187499995,0.030191279296874998,0.033669973
5.74,0.032075029,0.071367344,0.051008676,0.030191783,0.033672418
5.744,0.032075398,0.071363055,0.051004148,0.030190475,0.033672218749999996
5.748,0.032075363,0.07135843,0.051001668,0.030189201,0.033671414
5.752,0.032075633,0.071355008,0.051009949218749996,0.030189871093749997,0.033673559
5.756,0.03207523,0.071351891,0.051013535,0.030191381,0.033675738
5.76,0.032075197,0.071349039,0.051011191406249996,0.030193963,0.033677781
5.764,0.032074996093749995,0.071345789,0.051007066406249996,0.030194732,0.033679023
5.768,0.03207523,0.071342836,0.051005691,0.030194264,0.033678117187499995
5.772,0.032075498,0.071340859,0.051013769531249996,0.030194768,0.033679996
5.776,0.032075833984374996,0.071339414,0.051017391,0.03019641,0.033682008
5.78,0.032076939,0.0713365,0.051015313,0.03019775,0.033683281249999995
5.784,0.032077107,0.071332211,0.051009715,0.030196744,0.033682309
5.788,0.032077174,0.071327953,0.051007738,0.030195503906249997,0.033681305
5.792,0.032077477,0.071324398,0.051015313,0.030195572265624998,0.033681438
5.796,0.032078381,0.071321047,0.051018566,0.030195705,0.033682511718749995
5.8,0.032079254,0.071317687,0.051015984,0.030195335937499998,0.033684050781249995
5.804,0.032079488,0.071314,0.051010555,0.030194531,0.033684992
5.808,0.032079824,0.071310719,0.051008707031249996,0.030193258,0.033684957
5.812,0.032080025390624996,0.071308539,0.051017426,0.030194330078124998,0.033686633
5.816,0.032080761718749996,0.071306094,0.051020309,0.030195672,0.033688512
5.82,0.032082371,0.071303375,0.051017227,0.030196007812499998,0.033688746
5.824,0.03208274,0.071300258,0.051012363,0.030194732,0.033688379
5.828,0.032082941406249996,0.071295898,0.05101025,0.030193458984374998,0.033687977
5.832,0.032083645,0.071293117,0.051018062499999996,0.030193627,0.033689953
5.836,0.032085355,0.071290633,0.051021082,0.030193225,0.033692265624999995
5.84,0.032086697,0.071288391,0.051018433593749996,0.030192990234374998,0.033693676
5.844,0.032087535,0.071285539,0.051013234,0.030191916015624997,0.033693375
5.848,0.032088473,0.071281984,0.051011457,0.030190140624999997,0.033692265624999995
5.852,0.032089547,0.07127957,0.051018999999999995,0.030189805,0.033693676
5.856,0.032090988281249996,0.071277961,0.051022253906249995,0.030190072,0.033695789062499995
5.86,0.032091625,0.071276484,0.051019738,0.030189738,0.033697363281249997
5.864,0.032091691,0.071274141,0.051014879,0.030188061,0.033696523
5.868,0.032092898437499996,0.071271625,0.051013203124999996,0.030186652,0.033693609374999996
5.872,0.032093436,0.071269914,0.051021918,0.030186049,0.033694012
5.876,0.032093771,0.071267969,0.051025773,0.030186486328124998,0.033696961
5.88,0.032094006,0.07126582,0.051024633,0.030187089843749997,0.033697832
5.884,0.03209357,0.071263313,0.051021148,0.030186117,0.033698637
5.888,0.032094105,0.071259953,0.051019238,0.030184676,0.033699710937499995
5.892,0.032095111,0.071257008,0.051027383,0.030184676,0.033701586
5.896,0.032096486,0.071255063,0.051030031249999996,0.030185378906249997,0.033703164
5.9,0.032097996,0.071253484,0.051027988,0.030185613,0.033704672
5.904,0.032098531,0.071250336,0.051024133,0.030184406,0.033705374999999996
5.908,0.032099504,0.07124718,0.051023191406249994,0.030183535,0.033704672
5.912,0.03210051,0.071245273,0.051031004,0.030182998,0.033704035
5.916,0.032100711,0.071244102,0.051033586,0.030182529,0.033705109
5.92,0.032101214843749996,0.07124232,0.051031844,0.030181623046874998,0.033705176
5.924,0.032100879,0.071239641,0.051027449,0.030179244,0.033705344
5.928,0.032100342,0.071236117,0.05102527,0.030177199,0.033706551
5.932,0.032100645,0.071233469,0.051033183593749996,0.030176863281249997,0.033709098
5.936,0.032100879,0.071231055,0.051035531249999995,0.030176292968749997,0.033712852
5.94,0.032100846,0.071227906,0.051032715,0.030174951,0.033715804687499996
5.944,0.032100813,0.071225023,0.05102782,0.030173744,0.033715234
5.948,0.032101146484374996,0.071221938,0.051026949,0.030172203124999998,0.033713391
5.952,0.032100945,0.071219156,0.051035195,0.030171465,0.033714562499999996
5.956,0.032101416,0.071217477,0.05103741,0.030170895,0.033714898
5.96,0.032102421874999995,0.071216875,0.051035195,0.030169723,0.033715469
5.964,0.032101984374999996,0.071214625,0.051031609374999995,0.030168682,0.033716172
5.968,0.032100978515624996,0.071211813,0.051031305,0.030167811,0.033717343749999996
5.972,0.032100443,0.071210133,0.051040359,0.030167441,0.033718652343749995
5.976,0.03210165,0.071209164,0.05104284,0.030167072265624997,0.033719121
5.98,0.032103662,0.071207922,0.051041031,0.030166705078124998,0.033720262
5.984,0.032104467,0.071204906,0.051036805,0.030165195312499997,0.033719926
5.988,0.032105271484374996,0.071200945,0.051034426,0.030163318,0.033719258
5.992,0.032106611,0.071198367,0.051042371,0.030163217,0.033720562499999995
5.996,0.032107349609374995,0.071196422,0.051044816,0.030163889,0.033722945312499995
6,0.03210802,0.071194914,0.051042305,0.030164123046874998,0.033723883
6.004,0.03210792,0.071193172,0.051038047,0.030162646,0.033724219
6.008,0.032107986,0.071191055,0.051037273437499996,0.030161072,0.033723852
6.012,0.032109193359374996,0.071190055,0.051045691406249996,0.030161138671874997,0.033723648437499996
6.016,0.0321101,0.071188641,0.051048574,0.030161205,0.03372375
6.02,0.032110703,0.071187672,0.051047164,0.030160031,0.03372452
6.024,0.032110736,0.071185594,0.051042973,0.030158725,0.033725125
6.028,0.032111172,0.071182508,0.051042906,0.030158087890624997,0.033726531
6.032,0.032113484,0.07118043,0.051050586,0.030157953124999998,0.033726164
6.036,0.032114961,0.071178383,0.05105243,0.030158289,0.033726633
6.04,0.032115061,0.07117607,0.051050684,0.030158457,0.033728980468749996
6.044,0.032115294921874996,0.071173727,0.051046359374999996,0.030157517578124998,0.033728609374999996
6.048,0.032115229,0.071171172,0.051044047,0.030155505859374997,0.033727305
6.052,0.032115396484374996,0.07117007,0.051051488281249995,0.030154332031249998,0.033727875
6.056,0.032115898,0.071169766,0.051054105,0.03015383,0.033729215
6.06,0.032116502,0.071168961,0.051052598,0.03015326,0.033729684
6.064,0.032116771,0.071166516,0.051047902,0.030151516,0.033728074
6.068,0.032116469,0.071163602,0.051047199,0.030149738281249998,0.033727234
6.072,0.032116234,0.071162656,0.051056550781249994,0.030150007812499997,0.033728710937499996
6.076,0.032116066,0.071161953,0.051060007812499995,0.030149738281249998,0.033731395
6.08,0.032116535,0.071161523,0.051057828124999996,0.030150242,0.033733203
6.084,0.032116938,0.071160109,0.051053804687499996,0.030150074,0.033734277
6.088,0.032116871,0.071157695,0.051053738,0.030149437499999997,0.033734578
6.092,0.032117139,0.071155453,0.051062152,0.030148936,0.03373525
6.096,0.032118078,0.071154375,0.051063961,0.030147527343749998,0.033736222656249995
6.1,0.032118279296874996,0.071152836,0.05106118,0.030146621,0.033738199
6.104,0.032118381,0.071150188,0.051056219,0.030144609,0.033738266
6.108,0.032119219,0.071148109,0.05105548,0.030142765624999998,0.033737461
6.112,0.032120324218749996,0.07114657,0.051063761718749996,0.030142096,0.033737664
6.116,0.032121264,0.071144688,0.051065839843749995,0.030141559,0.033738469
6.12,0.032122203,0.071142211,0.051063426,0.030141457,0.033740313
6.124,0.032122873,0.071139086,0.051058597656249996,0.030140016,0.033740246093749995
6.128,0.032123041,0.071136172,0.05105709,0.030138574,0.033739238
6.132,0.032124113,0.071135133,0.051064668,0.030138004,0.033740211
6.136,0.032124885,0.071133594,0.051067047,0.030138039,0.033741855
6.14,0.032125857,0.071132148,0.051065070312499995,0.030137267578124998,0.033742559
6.144,0.032125957,0.0711295,0.051059906249999995,0.030135557,0.033741117187499996
6.148,0.032126392578124996,0.071126516,0.051058465,0.030132707031249997,0.033739273
6.152,0.032127197,0.071124906,0.051066109374999995,0.030130461,0.033738602
6.156,0.032127869,0.071123836,0.051067683593749996,0.03012932,0.033740277
6.16,0.032128404296874996,0.071121789,0.051065168,0.030128683593749997,0.033741383
6.164,0.032128539062499996,0.071118367,0.051060207,0.030126873,0.033740613
6.168,0.032128605,0.071114953,0.051058965,0.030124158203124998,0.033740648
6.172,0.032128975,0.0711125,0.051066477,0.03012275,0.033741551
6.176,0.032129041,0.071110727,0.051068387,0.030121542968749998,0.033742961
6.18,0.032129443359374996,0.071108414,0.051065875,0.030120134765624997,0.03374373
6.184,0.032129008,0.071104656,0.051060878906249996,0.030118693359374997,0.033744133
6.188,0.032128305,0.071100297,0.051060574218749995,0.030116883,0.033745004
6.192,0.032127834,0.071096914,0.051070031249999995,0.030115775,0.033745977
6.196,0.032127299,0.071094563,0.051072074,0.030115943359374998,0.033748191406249996
6.2,0.032127299,0.071093695,0.051070132812499995,0.030116313,0.033750438
6.204,0.032127667968749996,0.071091547,0.051065805,0.030115808593749998,0.033750504
6.208,0.032127969,0.071088664,0.051064668,0.030114937499999998,0.033749766
6.212,0.032128236,0.071087523,0.051072949,0.030115307,0.033751074218749996
6.216,0.032128639,0.071086383,0.051075695312499995,0.030115574,0.033752382812499995
6.22,0.032129813,0.071084,0.051073082031249994,0.030115441,0.033753789
6.224,0.03212998,0.071079711,0.051067316,0.030114133,0.03375473
6.228,0.032129645,0.071074016,0.051066578,0.030112624999999997,0.033755098
6.232,0.032130215,0.071070289,0.051074727,0.030111015624999998,0.033755133
6.236,0.032131322,0.071067742,0.05107657,0.030110512,0.033754563
6.24,0.032132059,0.071064555,0.051073953124999995,0.030110343749999997,0.033755133
6.244,0.032132595703124996,0.071060469,0.051068621093749995,0.030109137,0.033754359
6.248,0.032132797,0.071056375,0.051067551,0.030108131,0.033753121
6.252,0.032132496,0.071053859,0.051076133,0.030108635,0.033754059
6.256,0.032132395,0.071052523,0.051079117187499995,0.030109607,0.033756004
6.26,0.032132460937499996,0.071050945,0.051077777,0.030110244,0.033757211
6.264,0.032132730468749995,0.071048531,0.051073148,0.030109607,0.033756102
6.268,0.032133601562499996,0.071044914,0.051071839843749994,0.030107662,0.03375466
6.272,0.032134307,0.071042461,0.051079453,0.030106857421874997,0.033755734
6.276,0.032134238,0.071040219,0.051082101562499996,0.030106221,0.033758586
6.28,0.032134640624999995,0.071038172,0.051080828,0.030105986328124997,0.033759656
6.284,0.032135311,0.071035727,0.051075363,0.030104376953124998,0.033758887
6.288,0.032135511718749996,0.07103207,0.051074488,0.030102566,0.033758383
6.292,0.032134640624999995,0.071029188,0.051084547,0.030101963,0.033760429687499996
6.296,0.032134406,0.071027711,0.051086863,0.030101459,0.033762371
6.3,0.032135145,0.071025531,0.051084145,0.030100453,0.033763512
6.304,0.03213491,0.071022312,0.051079015624999995,0.030098744140624998,0.033764082031249996
6.308,0.032134406,0.071018656,0.051078109,0.030097871,0.03376509
6.312,0.032134172,0.071017117,0.051087195,0.030098240234374997,0.033768777
6.316,0.032135178,0.071016445,0.051089375,0.030098675781249997,0.03376975
6.32,0.032135445,0.071014969,0.051086863,0.030097973,0.033769883
6.324,0.032135511718749996,0.071012391,0.051081766,0.030095624999999997,0.033769379
6.328,0.032135178,0.071009039,0.051081062499999996,0.030093849609374997,0.033768273437499996
6.332,0.032135076,0.071006859,0.051089477,0.030093379,0.033768309
6.336,0.032135881,0.071005047,0.051090281,0.030093346,0.033769281
6.34,0.032135748046874996,0.071002602,0.051088371093749994,0.030093748046874997,0.033770891
6.344,0.032135277,0.071000016,0.051084984374999996,0.030092541015624998,0.033771059
6.348,0.032135109,0.070997438,0.051085253906249996,0.030090797,0.033771222656249995
6.352,0.032136184,0.070996094,0.051093668,0.030089322,0.033771762
6.356,0.032137893,0.070994789,0.051094773,0.030088049,0.033771996
6.36,0.032138529296874996,0.070993578,0.051092094,0.030086473,0.033772801
